File: docs/GuiliangJun25_tutorial_output/integrals/MA2-00002_spotsmasked.chi
MA2-00002.tif Azm= 0.00
2-Theta Angle (Degrees)
Intensity
       2500
 1.03978   7738.89
 1.0819   7531.69
 1.12402   7386.23
 1.16614   7265.38
 1.20826   7182.74
 1.25038   7154.46
 1.2925   7144.44
 1.33462   7145.97
 1.37674   7233.84
 1.41886   7341.06
 1.46098   7520.68
 1.5031   7730.02
 1.54522   7750.63
 1.58734   7694.16
 1.62946   7680.74
 1.67158   7691.24
 1.7137   7733.25
 1.75582   7784.96
 1.79794   7867.18
 1.84006   8012.01
 1.88218   8178.61
 1.9243   8396.3
 1.96642   8574.06
 2.00854   8791.1
 2.05066   8981.62
 2.09278   9217.81
 2.1349   9484.68
 2.17702   9968.11
 2.21914   13604.6
 2.26126   25625.1
 2.30338   11382.7
 2.3455   10848.9
 2.38762   11066.8
 2.42974   11337.9
 2.47186   11688.5
 2.51398   12017.2
 2.5561   12347
 2.59822   12656.6
 2.64034   12822
 2.68246   12952.6
 2.72458   13046.2
 2.7667   13011.7
 2.80882   12906.2
 2.85094   12783.3
 2.89306   12639.9
 2.93518   12441.7
 2.9773   12249.9
 3.01942   12008.1
 3.06154   11743.9
 3.10366   11501.6
 3.14578   11334
 3.1879   11194.2
 3.23002   11008.7
 3.27214   10914
 3.31426   10862.6
 3.35638   10762.1
 3.3985   10744.9
 3.44062   10784.3
 3.48274   10795
 3.52486   10738.9
 3.56698   10770.4
 3.6091   10725.1
 3.65122   10643.2
 3.69334   10559.3
 3.73546   10228.4
 3.77758   9803.95
 3.8197   9536.68
 3.86182   9381.38
 3.90394   9078.99
 3.94606   8769.94
 3.98818   8585.16
 4.0303   8393.11
 4.07242   8189.67
 4.11454   8112.13
 4.15666   7943.62
 4.19878   7767.41
 4.2409   7764.77
 4.28302   7738.61
 4.32514   7670.76
 4.36726   7638.71
 4.40938   7582.03
 4.4515   7638.23
 4.49362   9999.57
 4.53574   8230.25
 4.57786   6972.11
 4.61998   6764.05
 4.6621   6735.7
 4.70422   8242.06
 4.74634   8736.37
 4.78846   6560.87
 4.83058   6472.14
 4.8727   8382.73
 4.91482   11829.6
 4.95694   6584.09
 4.99906   6149.18
 5.04118   6092.64
 5.0833   6582.55
 5.12542   19887.3
 5.16754   19524.7
 5.20966   6358.8
 5.25178   5886.03
 5.2939   5804.48
 5.33602   5749.95
 5.37814   5740.37
 5.42026   5803.13
 5.46238   6094.28
 5.5045   8615.17
 5.54662   29010.8
 5.58874   11203.3
 5.63086   6322.2
 5.67298   5827.1
 5.7151   5703.18
 5.75722   5746.52
 5.79934   5700.42
 5.84146   5643.13
 5.88358   5758.61
 5.9257   8838.36
 5.96782   7788.15
 6.00994   6171.82
 6.05206   5760.24
 6.09418   5709.86
 6.1363   5721.4
 6.17842   5765.61
 6.22054   5755.07
 6.26266   5806.09
 6.30478   5856.37
 6.3469   5873.93
 6.38902   5895.37
 6.43114   5959.83
 6.47326   5966.28
 6.51538   6016.49
 6.5575   6093.1
 6.59962   6114.12
 6.64174   6193.46
 6.68386   6374.96
 6.72598   6456.21
 6.7681   6553.36
 6.81022   6578.41
 6.85234   6611.31
 6.89446   6684.24
 6.93658   6880.63
 6.9787   7176.48
 7.02082   9178.21
 7.06294   8227.66
 7.10506   6853.18
 7.14718   6624.57
 7.1893   6543.45
 7.23142   6492.73
 7.27354   6519.23
 7.31566   6497.92
 7.35778   6531.72
 7.3999   6459.78
 7.44202   6410.87
 7.48414   6410.98
 7.52626   6556.02
 7.56838   7661.08
 7.6105   12193.1
 7.65262   7832.93
 7.69474   6304.25
 7.73686   6028.12
 7.77898   5868.09
 7.8211   5782.6
 7.86322   5708.64
 7.90534   5634.99
 7.94746   5618.5
 7.98958   5643.84
 8.0317   6122.49
 8.07382   10507.4
 8.11594   8502.77
 8.15806   5798.09
 8.20018   5420.32
 8.2423   5343.63
 8.28442   5291.4
 8.32654   5402.72
 8.36866   6403.5
 8.41078   9864.33
 8.4529   5621.52
 8.49502   5215.73
 8.53714   5110.94
 8.57926   5050.9
 8.62138   5027.32
 8.6635   5008.65
 8.70562   4988.53
 8.74774   4974.58
 8.78986   5133.24
 8.83198   6140.8
 8.8741   5958.55
 8.91622   5058.86
 8.95834   5004.48
 9.00046   5414.35
 9.04258   5404.82
 9.0847   4904.92
 9.12682   4865.01
 9.16894   4909.89
 9.21106   5234.92
 9.25318   6873.48
 9.2953   5883.08
 9.33742   5169.07
 9.37954   5329.63
 9.42166   5310.61
 9.46378   6216.56
 9.5059   6075.85
 9.54802   5161.5
 9.59014   4954.77
 9.63226   4935.42
 9.67438   4944.89
 9.7165   4979.21
 9.75862   5313.07
 9.80074   7063.56
 9.84286   8999.93
 9.88498   8204.75
 9.9271   5179.25
 9.96922   5080.05
 10.0113   5083.66
 10.0535   5161.14
 10.0956   5158.72
 10.1377   5049.81
 10.1798   5055.88
 10.2219   5051.41
 10.2641   5275.69
 10.3062   8235.51
 10.3483   5204.57
 10.3904   5038.1
 10.4325   5017.45
 10.4747   5017.5
 10.5168   5065
 10.5589   5121.5
 10.601   4974.82
 10.6431   4926.91
 10.6853   5046.83
 10.7274   5374.34
 10.7695   5012.11
 10.8116   4882.61
 10.8537   4830.86
 10.8959   4779.54
 10.938   4736.88
 10.9801   4727.16
 11.0222   4737.59
 11.0643   4909.31
 11.1065   5696.19
 11.1486   5235.36
 11.1907   4726.65
 11.2328   4667.5
 11.2749   4681.36
 11.3171   4595.35
 11.3592   4509.23
 11.4013   4503.97
 11.4434   4518.37
 11.4855   4728.48
 11.5277   5048.41
 11.5698   4604.15
 11.6119   4440.96
 11.654   4375.65
 11.6961   4330.27
 11.7383   4305.65
 11.7804   4288.33
 11.8225   4279.66
 11.8646   4312.64
 11.9067   4866.52
 11.9489   4373.56
 11.991   4615.66
 12.0331   4473.1
 12.0752   4503.21
 12.1173   5221.74
 12.1595   4819.12
 12.2016   4245.32
 12.2437   4119.96
 12.2858   4081.05
 12.3279   4085.41
 12.3701   4269.95
 12.4122   4405.25
 12.4543   4687.6
 12.4964   4537.07
 12.5385   4133.73
 12.5807   4002.62
 12.6228   3976.48
 12.6649   4106.65
 12.6977   4595.97