File: docs/GuiliangJun25_tutorial_output/integrals/MA2-00002_om.chi
MA2-00002.tif Azm= 0.00
2-Theta Angle (Degrees)
Intensity
       2500
 1.03978   7738.89
 1.0819   7531.69
 1.12402   7386.23
 1.16614   7265.38
 1.20826   7182.74
 1.25038   7154.46
 1.2925   7144.44
 1.33462   7145.97
 1.37674   7233.84
 1.41886   7341.06
 1.46098   7520.68
 1.5031   7726.39
 1.54522   7750.63
 1.58734   7694.16
 1.62946   7680.74
 1.67158   7694.2
 1.7137   7736.09
 1.75582   7787.52
 1.79794   7867.18
 1.84006   8012.01
 1.88218   8178.61
 1.9243   8398.65
 1.96642   8571.51
 2.00854   8791.1
 2.05066   8979.5
 2.09278   9217.81
 2.1349   9484.68
 2.17702   9965.86
 2.21914   13604.6
 2.26126   25625.1
 2.30338   11382.7
 2.3455   10848.9
 2.38762   11068.7
 2.42974   11337.9
 2.47186   11681.7
 2.51398   12016.9
 2.5561   12347
 2.59822   12654.8
 2.64034   12821.9
 2.68246   12952.6
 2.72458   13046.2
 2.7667   13009.9
 2.80882   12904.4
 2.85094   12781.3
 2.89306   12638.3
 2.93518   12443.1
 2.9773   12249.9
 3.01942   12008.1
 3.06154   11743.9
 3.10366   11504.8
 3.14578   11329.2
 3.1879   11194.1
 3.23002   11005
 3.27214   10914
 3.31426   10860.6
 3.35638   10763.4
 3.3985   10744.9
 3.44062   10784.3
 3.48274   10795
 3.52486   10738.9
 3.56698   10770.4
 3.6091   10725.1
 3.65122   10643.2
 3.69334   10559.3
 3.73546   10228.4
 3.77758   9803.95
 3.8197   9536.68
 3.86182   9381.38
 3.90394   9078.99
 3.94606   8769.94
 3.98818   8585.16
 4.0303   8393.11
 4.07242   8189.67
 4.11454   8112.13
 4.15666   7943.62
 4.19878   7767.41
 4.2409   7764.77
 4.28302   7738.61
 4.32514   7666.47
 4.36726   7638.71
 4.40938   7582.03
 4.4515   7638.23
 4.49362   9999.57
 4.53574   8230.25
 4.57786   6972.11
 4.61998   6764.05
 4.6621   6735.7
 4.70422   8242.06
 4.74634   8736.37
 4.78846   6560.87
 4.83058   6470.53
 4.8727   8376.05
 4.91482   11829.6
 4.95694   6580.17
 4.99906   6149.18
 5.04118   6089.42
 5.0833   6509.62
 5.12542   8419.89
 5.16754   8633.93
 5.20966   6227.4
 5.25178   5883.61
 5.2939   5804.48
 5.33602   5749.95
 5.37814   5741.33
 5.42026   5802.06
 5.46238   6094.28
 5.5045   8615.17
 5.54662   29010.8
 5.58874   11203.3
 5.63086   6321.24
 5.67298   5828.17
 5.7151   5701.45
 5.75722   5745.4
 5.79934   5700.44
 5.84146   5642.29
 5.88358   5758.61
 5.9257   6569.88
 5.96782   6739.67
 6.00994   6170.92
 6.05206   5757.86
 6.09418   5708.79
 6.1363   5721.4
 6.17842   5765.61
 6.22054   5755.07
 6.26266   5803.06
 6.30478   5853.33
 6.3469   5872.31
 6.38902   5891.86
 6.43114   5957.95
 6.47326   5966.28
 6.51538   6014.09
 6.5575   6093.1
 6.59962   6114.12
 6.64174   6193.46
 6.68386   6374.96
 6.72598   6456.21
 6.7681   6553.36
 6.81022   6578.41
 6.85234   6611.31
 6.89446   6684.24
 6.93658   6880.63
 6.9787   7173.2
 7.02082   9178.21
 7.06294   8218.14
 7.10506   6853.18
 7.14718   6619.64
 7.1893   6543.45
 7.23142   6492.73
 7.27354   6517.87
 7.31566   6495.48
 7.35778   6530.62
 7.3999   6458.87
 7.44202   6408.97
 7.48414   6410.98
 7.52626   6556.02
 7.56838   7651.18
 7.6105   12190
 7.65262   7832.93
 7.69474   6301.37
 7.73686   6028.12
 7.77898   5868.09
 7.8211   5782.6
 7.86322   5708.64
 7.90534   5634.99
 7.94746   5612.43
 7.98958   5643.84
 8.0317   6122.49
 8.07382   10507.4
 8.11594   8502.77
 8.15806   5798.09
 8.20018   5415.15
 8.2423   5343.63
 8.28442   5291.4
 8.32654   5402.72
 8.36866   6402.06
 8.41078   8394.17
 8.4529   5621.52
 8.49502   5215.73
 8.53714   5110.05
 8.57926   5050.9
 8.62138   5025.53
 8.6635   5007.85
 8.70562   4986.98
 8.74774   4974.58
 8.78986   5131.06
 8.83198   6140.8
 8.8741   5955.76
 8.91622   5058.86
 8.95834   5005.17
 9.00046   5412.75
 9.04258   5404.82
 9.0847   4904.32
 9.12682   4865.6
 9.16894   4910.34
 9.21106   5235.55
 9.25318   6872.3
 9.2953   5883.08
 9.33742   5167.98
 9.37954   5327.82
 9.42166   5310.63
 9.46378   6215.99
 9.5059   6074.88
 9.54802   5161.97
 9.59014   4953.64
 9.63226   4935.42
 9.67438   4943.77
 9.7165   4978.42
 9.75862   5313.64
 9.80074   7063.56
 9.84286   8614.02
 9.88498   7103.92
 9.9271   5179.25
 9.96922   5079.32
 10.0113   5081.73
 10.0535   5157.59
 10.0956   5156.71
 10.1377   5048.44
 10.1798   5052.48
 10.2219   5050.05
 10.2641   5264.93
 10.3062   5819.74
 10.3483   5203.1
 10.3904   5037.28
 10.4325   5017.45
 10.4747   5016.5
 10.5168   5060.96
 10.5589   5120.75
 10.601   4971.99
 10.6431   4924.69
 10.6853   5044.02
 10.7274   5372.08
 10.7695   5011.46
 10.8116   4881.35
 10.8537   4830.2
 10.8959   4777.96
 10.938   4736.38
 10.9801   4727.64
 11.0222   4738.02
 11.0643   4909.9
 11.1065   5694.35
 11.1486   5234.87
 11.1907   4727.11
 11.2328   4666.15
 11.2749   4682.27
 11.3171   4595.46
 11.3592   4509.51
 11.4013   4502.79
 11.4434   4518.77
 11.4855   4728.1
 11.5277   5047.99
 11.5698   4603.32
 11.6119   4440.48
 11.654   4375.68
 11.6961   4329.04
 11.7383   4304.38
 11.7804   4286.84
 11.8225   4279.12
 11.8646   4311.56
 11.9067   4490.5
 11.9489   4372.64
 11.991   4614.41
 12.0331   4471.01
 12.0752   4503.82
 12.1173   5219.79
 12.1595   4818.73
 12.2016   4243.2
 12.2437   4118.92
 12.2858   4080.43
 12.3279   4084.78
 12.3701   4267.2
 12.4122   4404.47
 12.4543   4686.23
 12.4964   4537.59
 12.5385   4133.46
 12.5807   4001.7
 12.6228   3976.5
 12.6649   4104.74
 12.6977   4590.95