File: docs/GuiliangJun25_tutorial_output/integrals/MA2-00001_om.chi
MA2-00001.tif Azm= 0.00
2-Theta Angle (Degrees)
Intensity
       2500
 1.03978   7695.27
 1.0819   7448.85
 1.12402   7311.92
 1.16614   7174.2
 1.20826   7117.45
 1.25038   7053.82
 1.2925   7080.5
 1.33462   7101.17
 1.37674   7168.19
 1.41886   7262.2
 1.46098   7466.92
 1.5031   7661.82
 1.54522   7683.23
 1.58734   7649.16
 1.62946   7607.06
 1.67158   7614.19
 1.7137   7649.87
 1.75582   7686.12
 1.79794   7779.5
 1.84006   7914.05
 1.88218   8117.98
 1.9243   8326.25
 1.96642   8533.37
 2.00854   8718.63
 2.05066   8895.02
 2.09278   9139.51
 2.1349   9388.09
 2.17702   9861.57
 2.21914   12808
 2.26126   26176.3
 2.30338   11352.3
 2.3455   10770.4
 2.38762   10987.9
 2.42974   11251.3
 2.47186   11584
 2.51398   11926.1
 2.5561   12248.9
 2.59822   12531.7
 2.64034   12744.6
 2.68246   12866.1
 2.72458   12947.9
 2.7667   12909.5
 2.80882   12822.1
 2.85094   12679.9
 2.89306   12512.4
 2.93518   12345.7
 2.9773   12148.5
 3.01942   11913.9
 3.06154   11669.6
 3.10366   11402.8
 3.14578   11232.3
 3.1879   11080.8
 3.23002   10911.7
 3.27214   10810.9
 3.31426   10774.3
 3.35638   10660
 3.3985   10690.1
 3.44062   10701.9
 3.48274   10682.9
 3.52486   10686.8
 3.56698   10701.7
 3.6091   10677.7
 3.65122   10548
 3.69334   10479
 3.73546   10148.2
 3.77758   9754.96
 3.8197   9474.18
 3.86182   9323.29
 3.90394   8998.27
 3.94606   8695.39
 3.98818   8519.24
 4.0303   8354.16
 4.07242   8141.47
 4.11454   8055.09
 4.15666   7873.6
 4.19878   7702.13
 4.2409   7705.44
 4.28302   7692.6
 4.32514   7601.44
 4.36726   7613.87
 4.40938   7526.75
 4.4515   7522.11
 4.49362   9645.82
 4.53574   8393.33
 4.57786   6936.36
 4.61998   6711.1
 4.6621   6703.08
 4.70422   8495.29
 4.74634   8192.46
 4.78846   6450.58
 4.83058   6405.2
 4.8727   8766.82
 4.91482   11289.3
 4.95694   6423.58
 4.99906   6102.09
 5.04118   6033.18
 5.0833   6440.98
 5.12542   8310.58
 5.16754   8576.27
 5.20966   6164.38
 5.25178   5845.79
 5.2939   5761.61
 5.33602   5700.09
 5.37814   5688.37
 5.42026   5769.15
 5.46238   6070.07
 5.5045   8837.12
 5.54662   29689.6
 5.58874   10494.6
 5.63086   6203.69
 5.67298   5758.31
 5.7151   5644.18
 5.75722   5695.64
 5.79934   5654.04
 5.84146   5605.1
 5.88358   5720.02
 5.9257   6530.29
 5.96782   6668.74
 6.00994   6100.11
 6.05206   5711.98
 6.09418   5664.87
 6.1363   5674.2
 6.17842   5714.33
 6.22054   5728.23
 6.26266   5767.21
 6.30478   5814.3
 6.3469   5824.76
 6.38902   5844.7
 6.43114   5900.8
 6.47326   5913.91
 6.51538   5977.79
 6.5575   6024.19
 6.59962   6053.31
 6.64174   6143.07
 6.68386   6309.33
 6.72598   6395.12
 6.7681   6486.91
 6.81022   6515.14
 6.85234   6567.54
 6.89446   6610.9
 6.93658   6822.28
 6.9787   7108.1
 7.02082   9044.18
 7.06294   8144.18
 7.10506   6802.59
 7.14718   6563.07
 7.1893   6476.14
 7.23142   6438.71
 7.27354   6467.13
 7.31566   6429.19
 7.35778   6485.27
 7.3999   6425.34
 7.44202   6363.73
 7.48414   6373.92
 7.52626   6483.71
 7.56838   7471.82
 7.6105   12220.9
 7.65262   7904.84
 7.69474   6255.09
 7.73686   5980.88
 7.77898   5801.95
 7.8211   5734.38
 7.86322   5676.23
 7.90534   5585.14
 7.94746   5573.91
 7.98958   5606.84
 8.0317   6251.19
 8.07382   11388.5
 8.11594   7601.87
 8.15806   5595.98
 8.20018   5334.61
 8.2423   5293.93
 8.28442   5212.73
 8.32654   5360.53
 8.36866   6584.86
 8.41078   8141.68
 8.4529   5451.67
 8.49502   5147.62
 8.53714   5071.6
 8.57926   5000.98
 8.62138   4985.23
 8.6635   4962.23
 8.70562   4926.24
 8.74774   4935.09
 8.78986   5054.19
 8.83198   5990.05
 8.8741   6005.21
 8.91622   5017.58
 8.95834   4915.83
 9.00046   5268.51
 9.04258   5506.67
 9.0847   4892
 9.12682   4830.83
 9.16894   4881.13
 9.21106   5257.62
 9.25318   6992.06
 9.2953   5683.27
 9.33742   5148.27
 9.37954   5262.82
 9.42166   5294.73
 9.46378   6127.67
 9.5059   5998.08
 9.54802   5129.9
 9.59014   4905.78
 9.63226   4882.53
 9.67438   4906.2
 9.7165   4960.75
 9.75862   5374.49
 9.80074   7344.93
 9.84286   8382.68
 9.88498   6941.94
 9.9271   5123.85
 9.96922   5041.54
 10.0113   5037.03
 10.0535   5134.99
 10.0956   5082.64
 10.1377   5006.98
 10.1798   5003.32
 10.2219   5015.73
 10.2641   5217.33
 10.3062   5787.72
 10.3483   5159.73
 10.3904   5002.3
 10.4325   4981.77
 10.4747   4978.75
 10.5168   5024.05
 10.5589   5070.53
 10.601   4932.18
 10.6431   4900.73
 10.6853   5034.58
 10.7274   5319.77
 10.7695   4930.09
 10.8116   4824.36
 10.8537   4798.2
 10.8959   4742.39
 10.938   4701.96
 10.9801   4686.75
 11.0222   4712.57
 11.0643   4893.12
 11.1065   5734.83
 11.1486   5129.12
 11.1907   4656.9
 11.2328   4619.6
 11.2749   4654.36
 11.3171   4583.6
 11.3592   4472.26
 11.4013   4462.01
 11.4434   4463.94
 11.4855   4621.77
 11.5277   5063.41
 11.5698   4602.21
 11.6119   4397.19
 11.654   4340.06
 11.6961   4297.53
 11.7383   4272.17
 11.7804   4251.85
 11.8225   4244.24
 11.8646   4277.77
 11.9067   4461.94
 11.9489   4339.1
 11.991   4599.16
 12.0331   4423.24
 12.0752   4448.25
 12.1173   5191.16
 12.1595   4815.43
 12.2016   4218.34
 12.2437   4088.71
 12.2858   4052
 12.3279   4062.44
 12.3701   4284.85
 12.4122   4382.83
 12.4543   4694.49
 12.4964   4412.66
 12.5385   4059.91
 12.5807   3964.37
 12.6228   3956.09
 12.6649   4131.8
 12.6977   4746.97