File: docs/GuiliangJun25_tutorial_output/integrals/MA2-00001_spotsmasked.chi
MA2-00001.tif Azm= 0.00
2-Theta Angle (Degrees)
Intensity
       2500
 1.03978   7688.9
 1.0819   7448.85
 1.12402   7317.37
 1.16614   7179.13
 1.20826   7112.51
 1.25038   7049.7
 1.2925   7080.5
 1.33462   7096.9
 1.37674   7163.98
 1.41886   7262.2
 1.46098   7466.92
 1.5031   7661.82
 1.54522   7682.99
 1.58734   7649.16
 1.62946   7607.06
 1.67158   7616.8
 1.7137   7649.87
 1.75582   7686.12
 1.79794   7775.01
 1.84006   7911.7
 1.88218   8115.61
 1.9243   8326.25
 1.96642   8531.25
 2.00854   8721.12
 2.05066   8897.23
 2.09278   9137.44
 2.1349   9386.03
 2.17702   9863.71
 2.21914   12808
 2.26126   26176.3
 2.30338   11352.3
 2.3455   10775
 2.38762   10987.9
 2.42974   11253
 2.47186   11584
 2.51398   11924.2
 2.5561   12250.6
 2.59822   12534.5
 2.64034   12746.1
 2.68246   12869.8
 2.72458   12947.9
 2.7667   12909.5
 2.80882   12822.2
 2.85094   12679.9
 2.89306   12514.5
 2.93518   12345.7
 2.9773   12147
 3.01942   11912.2
 3.06154   11668.2
 3.10366   11404.4
 3.14578   11232.3
 3.1879   11082.3
 3.23002   10913.6
 3.27214   10809.2
 3.31426   10772.6
 3.35638   10660
 3.3985   10690.1
 3.44062   10701.8
 3.48274   10682.9
 3.52486   10686.8
 3.56698   10705.4
 3.6091   10677.7
 3.65122   10548
 3.69334   10479
 3.73546   10148.2
 3.77758   9754.96
 3.8197   9474.18
 3.86182   9323.29
 3.90394   8998.27
 3.94606   8695.39
 3.98818   8519.24
 4.0303   8361
 4.07242   8141.47
 4.11454   8055.09
 4.15666   7873.6
 4.19878   7702.13
 4.2409   7705.44
 4.28302   7692.6
 4.32514   7606.13
 4.36726   7613.87
 4.40938   7526.75
 4.4515   7522.11
 4.49362   9645.82
 4.53574   8393.33
 4.57786   6936.36
 4.61998   6711.1
 4.6621   6703.08
 4.70422   8495.29
 4.74634   8192.46
 4.78846   6450.58
 4.83058   6405.2
 4.8727   8768.46
 4.91482   11289.3
 4.95694   6426.27
 4.99906   6102.09
 5.04118   6033.09
 5.0833   6512.33
 5.12542   19555.7
 5.16754   19354.9
 5.20966   6293.1
 5.25178   5846.5
 5.2939   5761.61
 5.33602   5700.09
 5.37814   5688.37
 5.42026   5770.96
 5.46238   6070.07
 5.5045   8837.91
 5.54662   29689.6
 5.58874   10494.6
 5.63086   6206.17
 5.67298   5758.31
 5.7151   5645.05
 5.75722   5696.74
 5.79934   5655.23
 5.84146   5606.11
 5.88358   5720.47
 5.9257   8753.62
 5.96782   7720.37
 6.00994   6101.86
 6.05206   5713.18
 6.09418   5664.87
 6.1363   5675.4
 6.17842   5714.33
 6.22054   5728.23
 6.26266   5767.21
 6.30478   5814.3
 6.3469   5829.47
 6.38902   5846.44
 6.43114   5902.57
 6.47326   5913.91
 6.51538   5977.79
 6.5575   6026.72
 6.59962   6053.31
 6.64174   6143.07
 6.68386   6309.33
 6.72598   6395.12
 6.7681   6486.91
 6.81022   6515.14
 6.85234   6567.54
 6.89446   6610.9
 6.93658   6822.28
 6.9787   7108.1
 7.02082   9044.18
 7.06294   8153.03
 7.10506   6802.59
 7.14718   6563.07
 7.1893   6476.14
 7.23142   6438.71
 7.27354   6470.02
 7.31566   6431.6
 7.35778   6486.5
 7.3999   6425.34
 7.44202   6363.73
 7.48414   6373.92
 7.52626   6483.71
 7.56838   7476.06
 7.6105   12220.9
 7.65262   7904.84
 7.69474   6256.5
 7.73686   5982.33
 7.77898   5801.95
 7.8211   5735.87
 7.86322   5677.73
 7.90534   5586.83
 7.94746   5573.91
 7.98958   5606.84
 8.0317   6251.19
 8.07382   11388.5
 8.11594   7601.87
 8.15806   5595.98
 8.20018   5337.31
 8.2423   5293.93
 8.28442   5214.05
 8.32654   5360.53
 8.36866   6584.86
 8.41078   9571.96
 8.4529   5452.7
 8.49502   5147.62
 8.53714   5073.53
 8.57926   5003.44
 8.62138   4985.76
 8.6635   4964.57
 8.70562   4929.6
 8.74774   4935.86
 8.78986   5055.72
 8.83198   5990.05
 8.8741   6009.53
 8.91622   5017.58
 8.95834   4917.23
 9.00046   5269.45
 9.04258   5507.43
 9.0847   4892.56
 9.12682   4831.36
 9.16894   4881.13
 9.21106   5257.62
 9.25318   6994.04
 9.2953   5683.27
 9.33742   5148.79
 9.37954   5262.3
 9.42166   5295.69
 9.46378   6128.78
 9.5059   6000.44
 9.54802   5130.53
 9.59014   4906.26
 9.63226   4885.5
 9.67438   4915.54
 9.7165   4989.03
 9.75862   5381.94
 9.80074   7344.93
 9.84286   8645.94
 9.88498   8041.68
 9.9271   5123.85
 9.96922   5042.83
 10.0113   5038.4
 10.0535   5136.34
 10.0956   5085.28
 10.1377   5007.64
 10.1798   5006.48
 10.2219   5017.67
 10.2641   5234.67
 10.3062   8197.68
 10.3483   5162.11
 10.3904   5003.04
 10.4325   4981.77
 10.4747   4978.75
 10.5168   5025.99
 10.5589   5070.53
 10.601   4932.9
 10.6431   4900.73
 10.6853   5035.79
 10.7274   5322.87
 10.7695   4933.23
 10.8116   4824.36
 10.8537   4798.82
 10.8959   4744.38
 10.938   4702.93
 10.9801   4687.76
 11.0222   4713.4
 11.0643   4894.09
 11.1065   5735.77
 11.1486   5129.51
 11.1907   4657.25
 11.2328   4621.67
 11.2749   4654
 11.3171   4584.3
 11.3592   4471.12
 11.4013   4461.21
 11.4434   4462.74
 11.4855   4622.12
 11.5277   5063.5
 11.5698   4602.7
 11.6119   4397.23
 11.654   4340.79
 11.6961   4297.05
 11.7383   4272.97
 11.7804   4251.77
 11.8225   4245.07
 11.8646   4279.44
 11.9067   4833.53
 11.9489   4339.56
 11.991   4600.39
 12.0331   4423.65
 12.0752   4447.52
 12.1173   5192.59
 12.1595   4815.83
 12.2016   4220.12
 12.2437   4088.34
 12.2858   4052.79
 12.3279   4062.1
 12.3701   4285.8
 12.4122   4382.85
 12.4543   4696.53
 12.4964   4411.74
 12.5385   4060.78
 12.5807   3963.15
 12.6228   3957.6
 12.6649   4133.17
 12.6977   4750.01