File: docs/GuiliangJun25_tutorial_output/integrals/MA2-00003_om.chi
MA2-00003.tif Azm= 0.00
2-Theta Angle (Degrees)
Intensity
       2500
 1.03978   7774.04
 1.0819   7571.28
 1.12402   7424.02
 1.16614   7294.68
 1.20826   7239.4
 1.25038   7184.47
 1.2925   7170.77
 1.33462   7207.72
 1.37674   7285.51
 1.41886   7365.67
 1.46098   7601.53
 1.5031   7770.07
 1.54522   7796.06
 1.58734   7744.17
 1.62946   7712.78
 1.67158   7750.66
 1.7137   7734.3
 1.75582   7774.27
 1.79794   7882.15
 1.84006   8048
 1.88218   8181.83
 1.9243   8431.44
 1.96642   8631.84
 2.00854   8798.01
 2.05066   9004.93
 2.09278   9293.93
 2.1349   9528.48
 2.17702   10129.9
 2.21914   15085.3
 2.26126   24275.7
 2.30338   11272.3
 2.3455   10876.4
 2.38762   11073.7
 2.42974   11381.3
 2.47186   11751.5
 2.51398   12072.6
 2.5561   12373.6
 2.59822   12674.6
 2.64034   12857.6
 2.68246   12990.7
 2.72458   13085.1
 2.7667   13054
 2.80882   12970.8
 2.85094   12833.3
 2.89306   12665
 2.93518   12517.1
 2.9773   12279.5
 3.01942   12039.6
 3.06154   11789.9
 3.10366   11544.8
 3.14578   11393.4
 3.1879   11227.6
 3.23002   11059.8
 3.27214   10949.3
 3.31426   10897.4
 3.35638   10799.2
 3.3985   10811.1
 3.44062   10814.9
 3.48274   10823.2
 3.52486   10774.6
 3.56698   10766.9
 3.6091   10741.1
 3.65122   10638.7
 3.69334   10603.3
 3.73546   10263.4
 3.77758   9873.09
 3.8197   9602.87
 3.86182   9437.88
 3.90394   9095.01
 3.94606   8822.89
 3.98818   8597.24
 4.0303   8444.02
 4.07242   8210.64
 4.11454   8139.29
 4.15666   8002.86
 4.19878   7801.57
 4.2409   7792.2
 4.28302   7822.75
 4.32514   7700.39
 4.36726   7644.42
 4.40938   7596.69
 4.4515   7875.05
 4.49362   10145.7
 4.53574   7987.56
 4.57786   7003.54
 4.61998   6799.72
 4.6621   6746.37
 4.70422   7867.29
 4.74634   9242.45
 4.78846   6750.19
 4.83058   6481.46
 4.8727   7936.77
 4.91482   12100.1
 4.95694   6855.27
 4.99906   6204.61
 5.04118   6109.63
 5.0833   6542.93
 5.12542   8458.47
 5.16754   8647.29
 5.20966   6254.33
 5.25178   5917.65
 5.2939   5820.9
 5.33602   5768.2
 5.37814   5762.01
 5.42026   5820.73
 5.46238   6078.23
 5.5045   8285.36
 5.54662   27433.7
 5.58874   12322.3
 5.63086   6417.68
 5.67298   5860.91
 5.7151   5720.84
 5.75722   5774.08
 5.79934   5723.18
 5.84146   5659.88
 5.88358   5791.74
 5.9257   6602.1
 5.96782   6749.95
 6.00994   6223.23
 6.05206   5797.59
 6.09418   5727.81
 6.1363   5744.06
 6.17842   5782.67
 6.22054   5784.71
 6.26266   5834.3
 6.30478   5884.32
 6.3469   5897.69
 6.38902   5921.47
 6.43114   5968.68
 6.47326   5969.04
 6.51538   6028.5
 6.5575   6110.22
 6.59962   6146.18
 6.64174   6228.05
 6.68386   6390.17
 6.72598   6478.51
 6.7681   6565.24
 6.81022   6591.78
 6.85234   6649.08
 6.89446   6688.26
 6.93658   6909.54
 6.9787   7253.85
 7.02082   9297.13
 7.06294   8194.47
 7.10506   6856.06
 7.14718   6644.79
 7.1893   6553.59
 7.23142   6514.66
 7.27354   6560.55
 7.31566   6511.44
 7.35778   6545.73
 7.3999   6486.55
 7.44202   6434.24
 7.48414   6465.12
 7.52626   6635.02
 7.56838   7923.37
 7.6105   11914
 7.65262   7732.53
 7.69474   6298.55
 7.73686   6061.18
 7.77898   5885.63
 7.8211   5816.77
 7.86322   5731.37
 7.90534   5654.32
 7.94746   5636.51
 7.98958   5625.08
 8.0317   5955.99
 8.07382   9360.45
 8.11594   9225.06
 8.15806   6246.57
 8.20018   5526.56
 8.2423   5380.2
 8.28442   5316.86
 8.32654   5375.37
 8.36866   6199.95
 8.41078   8495.46
 8.4529   5868.09
 8.49502   5284.91
 8.53714   5145.98
 8.57926   5096.3
 8.62138   5050.39
 8.6635   5026.79
 8.70562   5006.38
 8.74774   5007.18
 8.78986   5242.72
 8.83198   6226.63
 8.8741   5832.56
 8.91622   5081.88
 8.95834   5093.11
 9.00046   5456.98
 9.04258   5279.23
 9.0847   4905.91
 9.12682   4867.64
 9.16894   4921.17
 9.21106   5189.53
 9.25318   6613.47
 9.2953   6091.25
 9.33742   5217.01
 9.37954   5325.73
 9.42166   5373.22
 9.46378   6214.7
 9.5059   6127.73
 9.54802   5197.25
 9.59014   4977.17
 9.63226   4944.71
 9.67438   4946.64
 9.7165   4991.79
 9.75862   5243.35
 9.80074   6653.77
 9.84286   8740.44
 9.88498   7286.42
 9.9271   5235.92
 9.96922   5102.14
 10.0113   5100.96
 10.0535   5160.15
 10.0956   5192.99
 10.1377   5096.36
 10.1798   5066.19
 10.2219   5070.5
 10.2641   5293.61
 10.3062   5852.77
 10.3483   5218.53
 10.3904   5061.88
 10.4325   5027.49
 10.4747   5042.24
 10.5168   5072.23
 10.5589   5121.41
 10.601   4981.67
 10.6431   4954.19
 10.6853   5039.1
 10.7274   5362.77
 10.7695   5090.9
 10.8116   4916.78
 10.8537   4851.15
 10.8959   4797.43
 10.938   4759.73
 10.9801   4741.34
 11.0222   4755.28
 11.0643   4890.7
 11.1065   5579.15
 11.1486   5337.87
 11.1907   4785.11
 11.2328   4713.4
 11.2749   4691.83
 11.3171   4613.27
 11.3592   4527.76
 11.4013   4526.69
 11.4434   4580.94
 11.4855   4793.88
 11.5277   4975.45
 11.5698   4579.33
 11.6119   4439.22
 11.654   4384.74
 11.6961   4352.4
 11.7383   4323.66
 11.7804   4303.72
 11.8225   4294.52
 11.8646   4324.27
 11.9067   4499.55
 11.9489   4383.67
 11.991   4604.86
 12.0331   4508.15
 12.0752   4545
 12.1173   5198.42
 12.1595   4794.9
 12.2016   4259.51
 12.2437   4131.09
 12.2858   4090.48
 12.3279   4078.2
 12.3701   4209.64
 12.4122   4376.27
 12.4543   4628.42
 12.4964   4617.42
 12.5385   4200.98
 12.5807   4036.43
 12.6228   3991.23
 12.6649   4072.17
 12.6977   4407.85