File: docs/GuiliangJun25_tutorial_output/integrals/MA2-00003_spotsmasked.chi
MA2-00003.tif Azm= 0.00
2-Theta Angle (Degrees)
Intensity
       2500
 1.03978   7774.04
 1.0819   7571.28
 1.12402   7424.02
 1.16614   7294.68
 1.20826   7231.66
 1.25038   7184.47
 1.2925   7174.46
 1.33462   7207.72
 1.37674   7289.39
 1.41886   7361.05
 1.46098   7601.53
 1.5031   7773.67
 1.54522   7799.37
 1.58734   7746.98
 1.62946   7712.78
 1.67158   7750.66
 1.7137   7734.3
 1.75582   7774.27
 1.79794   7884.73
 1.84006   8048
 1.88218   8179.4
 1.9243   8433.47
 1.96642   8627.24
 2.00854   8798.01
 2.05066   9004.93
 2.09278   9293.93
 2.1349   9528.48
 2.17702   10129.9
 2.21914   15085.3
 2.26126   24275.7
 2.30338   11272.3
 2.3455   10876.2
 2.38762   11073.7
 2.42974   11381.3
 2.47186   11751.5
 2.51398   12070.9
 2.5561   12373.6
 2.59822   12676.5
 2.64034   12855.9
 2.68246   12992.4
 2.72458   13085.1
 2.7667   13054
 2.80882   12972.6
 2.85094   12833.3
 2.89306   12665.1
 2.93518   12515.6
 2.9773   12277.8
 3.01942   12041.3
 3.06154   11789.9
 3.10366   11544.8
 3.14578   11391.7
 3.1879   11227.6
 3.23002   11058.1
 3.27214   10949.3
 3.31426   10900.7
 3.35638   10799.2
 3.3985   10811.1
 3.44062   10813
 3.48274   10828.1
 3.52486   10774.6
 3.56698   10766.9
 3.6091   10745.7
 3.65122   10638.7
 3.69334   10603.3
 3.73546   10270.6
 3.77758   9873.09
 3.8197   9602.87
 3.86182   9437.88
 3.90394   9095.01
 3.94606   8822.89
 3.98818   8597.24
 4.0303   8444.02
 4.07242   8210.64
 4.11454   8139.29
 4.15666   8002.86
 4.19878   7807.46
 4.2409   7792.2
 4.28302   7822.75
 4.32514   7700.39
 4.36726   7644.42
 4.40938   7596.69
 4.4515   7875.05
 4.49362   10145.7
 4.53574   7987.56
 4.57786   7003.54
 4.61998   6799.72
 4.6621   6746.37
 4.70422   7867.29
 4.74634   9242.45
 4.78846   6750.19
 4.83058   6483.14
 4.8727   7939.9
 4.91482   12100.1
 4.95694   6858.29
 4.99906   6205.86
 5.04118   6112.28
 5.0833   6622.47
 5.12542   20006.5
 5.16754   19581.9
 5.20966   6381.03
 5.25178   5921.25
 5.2939   5820.9
 5.33602   5771.23
 5.37814   5762.01
 5.42026   5821.97
 5.46238   6077.33
 5.5045   8287.94
 5.54662   27433.7
 5.58874   12322.3
 5.63086   6419.4
 5.67298   5860.91
 5.7151   5720.01
 5.75722   5774.08
 5.79934   5726.2
 5.84146   5659.88
 5.88358   5792.26
 5.9257   8871.4
 5.96782   7793.66
 6.00994   6226.16
 6.05206   5800.55
 6.09418   5728.96
 6.1363   5744.06
 6.17842   5782.67
 6.22054   5784.71
 6.26266   5834.3
 6.30478   5887.22
 6.3469   5899.34
 6.38902   5921.47
 6.43114   5970.52
 6.47326   5969.04
 6.51538   6028.5
 6.5575   6112.62
 6.59962   6146.18
 6.64174   6228.05
 6.68386   6390.17
 6.72598   6478.51
 6.7681   6565.24
 6.81022   6591.78
 6.85234   6653.16
 6.89446   6688.26
 6.93658   6909.54
 6.9787   7253.85
 7.02082   9297.13
 7.06294   8203.93
 7.10506   6856.06
 7.14718   6646.98
 7.1893   6555.52
 7.23142   6514.66
 7.27354   6562.24
 7.31566   6511.44
 7.35778   6548.23
 7.3999   6488.54
 7.44202   6434.24
 7.48414   6465.12
 7.52626   6635.02
 7.56838   7927.15
 7.6105   11914
 7.65262   7732.53
 7.69474   6299.9
 7.73686   6061.18
 7.77898   5885.63
 7.8211   5816.77
 7.86322   5731.37
 7.90534   5655.83
 7.94746   5638.07
 7.98958   5626.55
 8.0317   5955.99
 8.07382   9360.45
 8.11594   9225.06
 8.15806   6246.57
 8.20018   5527.82
 8.2423   5380.2
 8.28442   5316.86
 8.32654   5375.37
 8.36866   6201.28
 8.41078   9971.1
 8.4529   5869.25
 8.49502   5286.01
 8.53714   5150.05
 8.57926   5096.3
 8.62138   5051.26
 8.6635   5026.79
 8.70562   5006.38
 8.74774   5007.18
 8.78986   5244.26
 8.83198   6226.63
 8.8741   5834.88
 8.91622   5082.41
 8.95834   5091.77
 9.00046   5459.36
 9.04258   5280
 9.0847   4906.53
 9.12682   4869.07
 9.16894   4921.17
 9.21106   5189.53
 9.25318   6613.5
 9.2953   6091.25
 9.33742   5217.05
 9.37954   5326.7
 9.42166   5376.07
 9.46378   6214.2
 9.5059   6127.9
 9.54802   5197.89
 9.59014   4977.92
 9.63226   4946.12
 9.67438   4957.18
 9.7165   5018.93
 9.75862   5260.72
 9.80074   6654.57
 9.84286   9269.88
 9.88498   8413.78
 9.9271   5235.92
 9.96922   5102.83
 10.0113   5101.66
 10.0535   5160.84
 10.0956   5194.88
 10.1377   5096.36
 10.1798   5068.9
 10.2219   5073.19
 10.2641   5307.05
 10.3062   8268.85
 10.3483   5219.45
 10.3904   5062.65
 10.4325   5028.29
 10.4747   5042.24
 10.5168   5073.84
 10.5589   5121.41
 10.601   4981.67
 10.6431   4954.84
 10.6853   5039.1
 10.7274   5363.92
 10.7695   5094.51
 10.8116   4917.96
 10.8537   4853.18
 10.8959   4797.92
 10.938   4760.82
 10.9801   4741.82
 11.0222   4756.2
 11.0643   4889.95
 11.1065   5580
 11.1486   5338.23
 11.1907   4784.85
 11.2328   4715.8
 11.2749   4691.82
 11.3171   4613.05
 11.3592   4526.87
 11.4013   4526.69
 11.4434   4580.6
 11.4855   4793.87
 11.5277   4975.45
 11.5698   4579.94
 11.6119   4438.7
 11.654   4384.74
 11.6961   4352.47
 11.7383   4324.41
 11.7804   4304.11
 11.8225   4295.4
 11.8646   4327.9
 11.9067   4869.49
 11.9489   4384.97
 11.991   4607.07
 12.0331   4508.95
 12.0752   4543.35
 12.1173   5201.76
 12.1595   4794.85
 12.2016   4259.87
 12.2437   4131.1
 12.2858   4091.08
 12.3279   4080.15
 12.3701   4212.66
 12.4122   4378.14
 12.4543   4629.91
 12.4964   4616.98
 12.5385   4200.25
 12.5807   4036.01
 12.6228   3990.77
 12.6649   4072.63
 12.6977   4412.18