File: docs/GuiliangJun25_tutorial_output/integrals/MA2-00003_arcsmasked.chi
MA2-00003.tif Azm= 0.00
2-Theta Angle (Degrees)
Intensity
       2500
 1.03978   7774.04
 1.0819   7571.28
 1.12402   7424.02
 1.16614   7294.68
 1.20826   7231.66
 1.25038   7184.47
 1.2925   7174.46
 1.33462   7383.65
 1.37674   7294.36
 1.41886   7376.19
 1.46098   7605.87
 1.5031   7776.48
 1.54522   7799.51
 1.58734   7749.38
 1.62946   7712.78
 1.67158   7764.34
 1.7137   7742.55
 1.75582   7774.27
 1.79794   7886.57
 1.84006   8059.49
 1.88218   8188.18
 1.9243   8436.77
 1.96642   8644.59
 2.00854   8803.01
 2.05066   9011.21
 2.09278   9298.9
 2.1349   9532.63
 2.17702   10129.9
 2.21914   15085.3
 2.26126   24275.7
 2.30338   11272.3
 2.3455   10880.3
 2.38762   11078.6
 2.42974   11385.2
 2.47186   11758.2
 2.51398   12075.5
 2.5561   12376.2
 2.59822   12682.7
 2.64034   12862.3
 2.68246   13042.4
 2.72458   13125
 2.7667   13088.7
 2.80882   12995.1
 2.85094   12861.9
 2.89306   12684.4
 2.93518   12537.3
 2.9773   12301.4
 3.01942   12060.5
 3.06154   11813.3
 3.10366   11562.8
 3.14578   11417.9
 3.1879   11246.6
 3.23002   11078.4
 3.27214   10975.9
 3.31426   10944
 3.35638   10831.4
 3.3985   10874.8
 3.44062   10902.4
 3.48274   10908.1
 3.52486   10873.6
 3.56698   10974.6
 3.6091   10982.9
 3.65122   11005.9
 3.69334   11361.7
 3.73546   11512.4
 3.77758   11773.2
 3.8197   13009
 3.86182   14016.1
 3.90394   20317.8
 3.94606   69486
 3.98818   57099.5
 4.0303   17793.2
 4.07242   13087.1
 4.11454   11535
 4.15666   10183.1
 4.19878   9642.61
 4.2409   9120.18
 4.28302   8516.42
 4.32514   8183.26
 4.36726   7896.71
 4.40938   7696.23
 4.4515   7886.22
 4.49362   10148.9
 4.53574   7989.57
 4.57786   7003.54
 4.61998   6799.72
 4.6621   6746.37
 4.70422   7867.29
 4.74634   9242.45
 4.78846   6750.19
 4.83058   6485.03
 4.8727   7939.9
 4.91482   12100.1
 4.95694   6858.29
 4.99906   6207.13
 5.04118   6113.51
 5.0833   6542.93
 5.12542   8534.58
 5.16754   8659.84
 5.20966   6258.76
 5.25178   5956.54
 5.2939   5845.9
 5.33602   5790.93
 5.37814   5816.12
 5.42026   5847.7
 5.46238   6089.5
 5.5045   8295.67
 5.54662   27433.7
 5.58874   12582.4
 5.63086   6549.09
 5.67298   5889.34
 5.7151   5729.49
 5.75722   5807.59
 5.79934   5749.32
 5.84146   5668.21
 5.88358   5807.54
 5.9257   6667.17
 5.96782   6749.95
 6.00994   6242.74
 6.05206   5814.86
 6.09418   5728.96
 6.1363   5744.06
 6.17842   5782.67
 6.22054   5784.71
 6.26266   5836
 6.30478   5890.2
 6.3469   5906.83
 6.38902   5964.87
 6.43114   6042.32
 6.47326   6135.25
 6.51538   6261.87
 6.5575   6371.26
 6.59962   6550.43
 6.64174   6788.03
 6.68386   6994.48
 6.72598   7169.47
 6.7681   7592.25
 6.81022   8069.71
 6.85234   12177.8
 6.89446   20997.9
 6.93658   8583.65
 6.9787   8435.15
 7.02082   10006.5
 7.06294   8709.54
 7.10506   7287.95
 7.14718   7011.28
 7.1893   6823.74
 7.23142   6734.47
 7.27354   6768.26
 7.31566   6637.18
 7.35778   6604.88
 7.3999   6506.2
 7.44202   6438.13
 7.48414   6465.12
 7.52626   6635.02
 7.56838   7927.15
 7.6105   11945.2
 7.65262   7796.84
 7.69474   6520.23
 7.73686   6354.89
 7.77898   6351.87
 7.8211   6407.23
 7.86322   6407.73
 7.90534   6686.93
 7.94746   18430.7
 7.98958   6688.43
 8.0317   6589.51
 8.07382   9766.75
 8.11594   9635.49
 8.15806   6657.68
 8.20018   5859.7
 8.2423   5676.64
 8.28442   5573.48
 8.32654   5565.35
 8.36866   6379.98
 8.41078   11142.4
 8.4529   5983.67
 8.49502   5352.11
 8.53714   5202.22
 8.57926   5137.27
 8.62138   5089.84
 8.6635   5075.07
 8.70562   5066.93
 8.74774   5077.21
 8.78986   5323.81
 8.83198   6398.55
 8.8741   8205.12
 8.91622   5202.58
 8.95834   5162.17
 9.00046   5519.91
 9.04258   5327.56
 9.0847   4952.41
 9.12682   4904.42
 9.16894   4940.82
 9.21106   5197.9
 9.25318   6616.41
 9.2953   6093.52
 9.33742   5218.4
 9.37954   5328.68
 9.42166   5377.91
 9.46378   6215.52
 9.5059   6130.66
 9.54802   5213.04
 9.59014   5001.43
 9.63226   4978.35
 9.67438   5045.4
 9.7165   6586.7
 9.75862   5351.79
 9.80074   6691.85
 9.84286   8972.03
 9.88498   7913.24
 9.9271   5236.36
 9.96922   5102.83
 10.0113   5102.18
 10.0535   5162.13
 10.0956   5197.04
 10.1377   5096.93
 10.1798   5069.95
 10.2219   5081.33
 10.2641   5293.61
 10.3062   5867.45
 10.3483   5246.55
 10.3904   5141.08
 10.4325   5106.97
 10.4747   5427.51
 10.5168   5607.96
 10.5589   5186.61
 10.601   5052.05
 10.6431   5002.92
 10.6853   5065.37
 10.7274   5387.17
 10.7695   5106.16
 10.8116   4927.88
 10.8537   4856.47
 10.8959   4799.68
 10.938   4761.92
 10.9801   4742.88
 11.0222   4757.1
 11.0643   4888.1
 11.1065   5580.49
 11.1486   5339.46
 11.1907   4787.94
 11.2328   4889.97
 11.2749   4691.82
 11.3171   4615.32
 11.3592   4527.51
 11.4013   4526.69
 11.4434   4580.6
 11.4855   4795.05
 11.5277   4975.77
 11.5698   4579.94
 11.6119   4439.22
 11.654   4384.74
 11.6961   4353.38
 11.7383   4325.13
 11.7804   4307.31
 11.8225   4298.75
 11.8646   4330.37
 11.9067   4560.26
 11.9489   4394.8
 11.991   4617.46
 12.0331   4514.09
 12.0752   4545.66
 12.1173   5207.61
 12.1595   4796.18
 12.2016   4261.29
 12.2437   4133.7
 12.2858   4093.25
 12.3279   4082.15
 12.3701   4214
 12.4122   4380.26
 12.4543   4631.83
 12.4964   4618.47
 12.5385   4203.47
 12.5807   4039.73
 12.6228   3992.11
 12.6649   4073.49
 12.6977   4412.88