File: docs/GuiliangJun25_tutorial_output/integrals/MA2-00002_arcsmasked.chi
MA2-00002.tif Azm= 0.00
2-Theta Angle (Degrees)
Intensity
       2500
 1.03978   7738.89
 1.0819   7531.69
 1.12402   7386.23
 1.16614   7265.38
 1.20826   7182.74
 1.25038   7154.46
 1.2925   7144.44
 1.33462   7214.59
 1.37674   7236.37
 1.41886   7345.07
 1.46098   7526.28
 1.5031   7734.06
 1.54522   7749.84
 1.58734   7694.16
 1.62946   7680.74
 1.67158   7694.94
 1.7137   7739.9
 1.75582   7784.96
 1.79794   7869.67
 1.84006   8015.37
 1.88218   8185.18
 1.9243   8396.3
 1.96642   8585.86
 2.00854   8794.89
 2.05066   8985.1
 2.09278   9222.92
 2.1349   9486.66
 2.17702   9970.09
 2.21914   13604.6
 2.26126   25625.1
 2.30338   11384
 2.3455   10852.8
 2.38762   11070.4
 2.42974   11337.9
 2.47186   11692.5
 2.51398   12022.4
 2.5561   12349.7
 2.59822   12658.3
 2.64034   12822
 2.68246   12991.8
 2.72458   13077.6
 2.7667   13039.1
 2.80882   12928.4
 2.85094   12804.4
 2.89306   12657
 2.93518   12462.5
 2.9773   12270.3
 3.01942   12025.4
 3.06154   11762.7
 3.10366   11515.6
 3.14578   11351.3
 3.1879   11206.5
 3.23002   11026.2
 3.27214   10930.7
 3.31426   10881.9
 3.35638   10776.1
 3.3985   10785.7
 3.44062   10849.1
 3.48274   10848.6
 3.52486   10808.7
 3.56698   10904.8
 3.6091   10882.6
 3.65122   10941.2
 3.69334   11263.6
 3.73546   11391.9
 3.77758   11627.3
 3.8197   12763.5
 3.86182   13736.5
 3.90394   18965.8
 3.94606   67141.6
 3.98818   54062.3
 4.0303   17345
 4.07242   12828.2
 4.11454   11384.8
 4.15666   10070.8
 4.19878   9541.53
 4.2409   9030.63
 4.28302   8442.56
 4.32514   8119.94
 4.36726   7850.09
 4.40938   7617.84
 4.4515   7645.87
 4.49362   9999.57
 4.53574   8230.25
 4.57786   6972.11
 4.61998   6764.05
 4.6621   6735.7
 4.70422   8242.06
 4.74634   8736.37
 4.78846   6562.69
 4.83058   6472.14
 4.8727   8382.73
 4.91482   11829.6
 4.95694   6584.09
 4.99906   6149.18
 5.04118   6089.56
 5.0833   6509.62
 5.12542   8511.69
 5.16754   8646.77
 5.20966   6229.06
 5.25178   5926.17
 5.2939   5826.48
 5.33602   5766
 5.37814   5794.36
 5.42026   5829.4
 5.46238   6105.89
 5.5045   8624.74
 5.54662   29010.8
 5.58874   11461.5
 5.63086   6444.46
 5.67298   5856.48
 5.7151   5717.68
 5.75722   5785.48
 5.79934   5723.03
 5.84146   5656.91
 5.88358   5777.73
 5.9257   6638.16
 5.96782   6739.67
 6.00994   6185.35
 6.05206   5772.36
 6.09418   5709.86
 6.1363   5722.4
 6.17842   5765.61
 6.22054   5755.07
 6.26266   5806.09
 6.30478   5863.64
 6.3469   5889.82
 6.38902   5940.48
 6.43114   6031.75
 6.47326   6119.83
 6.51538   6239.34
 6.5575   6343.46
 6.59962   6504.89
 6.64174   6746.3
 6.68386   6968.74
 6.72598   7135.67
 6.7681   7561.63
 6.81022   8042.79
 6.85234   11911.2
 6.89446   19259
 6.93658   8517.4
 6.9787   8331.27
 7.02082   9893.53
 7.06294   8713.47
 7.10506   7272.45
 7.14718   6989.21
 7.1893   6800.26
 7.23142   6697.55
 7.27354   6721.54
 7.31566   6622.15
 7.35778   6582.72
 7.3999   6480.54
 7.44202   6413.77
 7.48414   6410.98
 7.52626   6557.15
 7.56838   7665.55
 7.6105   12217.6
 7.65262   7907.83
 7.69474   6537.28
 7.73686   6331.09
 7.77898   6345.33
 7.8211   6399.13
 7.86322   6418.98
 7.90534   6826.11
 7.94746   22935.2
 7.98958   6893.03
 8.0317   6770.65
 8.07382   10965.5
 8.11594   8933.81
 8.15806   6226.42
 8.20018   5759.54
 8.2423   5642.64
 8.28442   5542.95
 8.32654   5571.7
 8.36866   6582.88
 8.41078   11037.8
 8.4529   5733.06
 8.49502   5278.49
 8.53714   5169.35
 8.57926   5099.36
 8.62138   5077.7
 8.6635   5058.91
 8.70562   5051.3
 8.74774   5047.49
 8.78986   5212.8
 8.83198   6318.37
 8.8741   8098.06
 8.91622   5175.61
 8.95834   5075.26
 9.00046   5475.58
 9.04258   5455.4
 9.0847   4945.44
 9.12682   4897.19
 9.16894   4928.82
 9.21106   5241.26
 9.25318   6877.3
 9.2953   5883.08
 9.33742   5171.53
 9.37954   5332.32
 9.42166   5310.61
 9.46378   6218.91
 9.5059   6083.19
 9.54802   5178.14
 9.59014   4978.88
 9.63226   4971.34
 9.67438   5049.19
 9.7165   6521.29
 9.75862   5426.54
 9.80074   7097.59
 9.84286   8812.11
 9.88498   7729.21
 9.9271   5181.02
 9.96922   5080.66
 10.0113   5083.66
 10.0535   5162.43
 10.0956   5159.98
 10.1377   5050.98
 10.1798   5058.72
 10.2219   5062.86
 10.2641   5264.93
 10.3062   5843.84
 10.3483   5231.13
 10.3904   5120.34
 10.4325   5092.53
 10.4747   5457.63
 10.5168   5592.57
 10.5589   5184.81
 10.601   5039.91
 10.6431   4976.02
 10.6853   5076.61
 10.7274   5393.59
 10.7695   5027.66
 10.8116   4891.43
 10.8537   4833.22
 10.8959   4781.5
 10.938   4738.22
 10.9801   4727.6
 11.0222   4737.59
 11.0643   4909.31
 11.1065   5697.05
 11.1486   5235.4
 11.1907   4727.37
 11.2328   4839.57
 11.2749   4682.98
 11.3171   4595.9
 11.3592   4508.49
 11.4013   4503.97
 11.4434   4519.31
 11.4855   4728.75
 11.5277   5048.75
 11.5698   4605.39
 11.6119   4440.58
 11.654   4376.94
 11.6961   4331.64
 11.7383   4307.39
 11.7804   4290.72
 11.8225   4282.74
 11.8646   4317.56
 11.9067   4537.88
 11.9489   4385.89
 11.991   4621.6
 12.0331   4477.44
 12.0752   4505.84
 12.1173   5231.57
 12.1595   4820.9
 12.2016   4248.48
 12.2437   4122.16
 12.2858   4084.25
 12.3279   4087.25
 12.3701   4272.03
 12.4122   4406.23
 12.4543   4689
 12.4964   4538.64
 12.5385   4137.16
 12.5807   4006.68
 12.6228   3979.28
 12.6649   4107.8
 12.6977   4596.7