File: docs/GuiliangJun25_tutorial_output/integrals/MA2-00001_base.chi
MA2-00001.tif Azm= 0.00
2-Theta Angle (Degrees)
Intensity
       2500
 1.03978   7688.9
 1.0819   7448.85
 1.12402   7317.37
 1.16614   7179.13
 1.20826   7112.51
 1.25038   7049.7
 1.2925   7080.5
 1.33462   7138.3
 1.37674   7168.47
 1.41886   7270.52
 1.46098   7472.97
 1.5031   7665.33
 1.54522   7686.42
 1.58734   7649.16
 1.62946   7611.21
 1.67158   7623.99
 1.7137   7654.53
 1.75582   7686.12
 1.79794   7777.28
 1.84006   7918.15
 1.88218   8121.42
 1.9243   8326.25
 1.96642   8545.12
 2.00854   8721.12
 2.05066   8899.31
 2.09278   9141.27
 2.1349   9390.32
 2.17702   9868.04
 2.21914   12808
 2.26126   26176.3
 2.30338   11352.3
 2.3455   10778.7
 2.38762   10990.6
 2.42974   11255.7
 2.47186   11590.8
 2.51398   11929.1
 2.5561   12252.6
 2.59822   12539.3
 2.64034   12749
 2.68246   12904.1
 2.72458   12975.4
 2.7667   12935.6
 2.80882   12842.4
 2.85094   12700.8
 2.89306   12533.5
 2.93518   12361.6
 2.9773   12167.3
 3.01942   11927.2
 3.06154   11686.3
 3.10366   11420.3
 3.14578   11250.5
 3.1879   11096.7
 3.23002   10934.7
 3.27214   10824.9
 3.31426   10789.8
 3.35638   10674.6
 3.3985   10715.9
 3.44062   10732.2
 3.48274   10726.4
 3.52486   10738.4
 3.56698   10812.7
 3.6091   10812.7
 3.65122   10812.5
 3.69334   11131.4
 3.73546   11281.5
 3.77758   11485.4
 3.8197   12582
 3.86182   13561.6
 3.90394   18032.4
 3.94606   68144
 3.98818   54912.4
 4.0303   17257.9
 4.07242   12661.9
 4.11454   11277.4
 4.15666   9966.2
 4.19878   9437.43
 4.2409   8940.48
 4.28302   8367.08
 4.32514   8041.9
 4.36726   7785.41
 4.40938   7558.24
 4.4515   7522.11
 4.49362   9648.14
 4.53574   8393.33
 4.57786   6936.36
 4.61998   6711.1
 4.6621   6705.22
 4.70422   8495.29
 4.74634   8192.46
 4.78846   6452.04
 4.83058   6405.2
 4.8727   8770.51
 4.91482   11289.3
 4.95694   6426.27
 4.99906   6103.48
 5.04118   6038.63
 5.0833   6512.33
 5.12542   19533.4
 5.16754   19354.9
 5.20966   6294.47
 5.25178   5881.75
 5.2939   5783.39
 5.33602   5718.43
 5.37814   5739.06
 5.42026   5797.57
 5.46238   6084.28
 5.5045   8844.71
 5.54662   29689.6
 5.58874   10720.4
 5.63086   6312.15
 5.67298   5783.42
 5.7151   5655.58
 5.75722   5730.23
 5.79934   5678.39
 5.84146   5613.47
 5.88358   5740.86
 5.9257   8758.79
 5.96782   7720.37
 6.00994   6112.5
 6.05206   5726.32
 6.09418   5666.16
 6.1363   5675.91
 6.17842   5715.94
 6.22054   5728.23
 6.26266   5768.39
 6.30478   5825.15
 6.3469   5844.88
 6.38902   5877.75
 6.43114   5975.1
 6.47326   6060.84
 6.51538   6199.27
 6.5575   6276.83
 6.59962   6471.89
 6.64174   6700.06
 6.68386   6903.11
 6.72598   7070.75
 6.7681   7496.62
 6.81022   7957.1
 6.85234   11663.9
 6.89446   17484.2
 6.93658   8412.88
 6.9787   8244.64
 7.02082   9740.83
 7.06294   8653.68
 7.10506   7216.15
 7.14718   6931.3
 7.1893   6741.63
 7.23142   6655.29
 7.27354   6680.09
 7.31566   6573.26
 7.35778   6545.36
 7.3999   6438.34
 7.44202   6367.53
 7.48414   6379.47
 7.52626   6495.1
 7.56838   7505.62
 7.6105   12261.8
 7.65262   7989.8
 7.69474   6509.44
 7.73686   6317.23
 7.77898   6325.69
 7.8211   6394.44
 7.86322   6462.42
 7.90534   7312.65
 7.94746   26975.7
 7.98958   7261.26
 8.0317   6960.82
 8.07382   11897.6
 8.11594   8070.69
 8.15806   6052.86
 8.20018   5700.59
 8.2423   5602.17
 8.28442   5495.76
 8.32654   5547.25
 8.36866   6756.79
 8.41078   11762
 8.4529   5575.87
 8.49502   5217.21
 8.53714   5133.36
 8.57926   5057.96
 8.62138   5031.08
 8.6635   5022.83
 8.70562   4996.42
 8.74774   5007.49
 8.78986   5139.28
 8.83198   6158.71
 8.8741   7896.26
 8.91622   5135.47
 8.95834   4991.59
 9.00046   5327.29
 9.04258   5553.71
 9.0847   4930.21
 9.12682   4865.81
 9.16894   4901.91
 9.21106   5265.74
 9.25318   7000.86
 9.2953   5683.77
 9.33742   5150.93
 9.37954   5263.65
 9.42166   5297.25
 9.46378   6129.81
 9.5059   6007.83
 9.54802   5145.93
 9.59014   4927.3
 9.63226   4918.24
 9.67438   5014.4
 9.7165   6463.13
 9.75862   5480.24
 9.80074   7378.57
 9.84286   8790.58
 9.88498   8336.6
 9.9271   5123.85
 9.96922   5043.5
 10.0113   5038.4
 10.0535   5136.84
 10.0956   5085.28
 10.1377   5008.86
 10.1798   5012.38
 10.2219   5024.97
 10.2641   5234.67
 10.3062   8197.68
 10.3483   5188.56
 10.3904   5080.51
 10.4325   5056.46
 10.4747   5358.51
 10.5168   5555.83
 10.5589   5129.4
 10.601   4992.29
 10.6431   4945.23
 10.6853   5065.96
 10.7274   5341.39
 10.7695   4946.76
 10.8116   4830.24
 10.8537   4801.68
 10.8959   4745.9
 10.938   4703.48
 10.9801   4688.43
 11.0222   4713.4
 11.0643   4894.09
 11.1065   5737.39
 11.1486   5129.88
 11.1907   4657.96
 11.2328   4778.52
 11.2749   4655.13
 11.3171   4585.64
 11.3592   4472.25
 11.4013   4461.36
 11.4434   4463.37
 11.4855   4622.51
 11.5277   5064.1
 11.5698   4603.17
 11.6119   4397.56
 11.654   4341.27
 11.6961   4298.46
 11.7383   4279.76
 11.7804   4255.1
 11.8225   4248.19
 11.8646   4286.43
 11.9067   4871.55
 11.9489   4349.45
 11.991   4606.42
 12.0331   4428.84
 12.0752   4450.18
 12.1173   5198.73
 12.1595   4816.65
 12.2016   4222.32
 12.2437   4091.01
 12.2858   4054.17
 12.3279   4064.04
 12.3701   4287.09
 12.4122   4385.04
 12.4543   4698.12
 12.4964   4412.74
 12.5385   4064.29
 12.5807   3965.41
 12.6228   3958.36
 12.6649   4134.71
 12.6977   4750.38