File: docs/GuiliangJun25_tutorial_output/integrals/MA2b-00006_base.chi
MA2b-00006.tif Azm= 0.00
2-Theta Angle (Degrees)
Intensity
       2500
 1.03978   7735.69
 1.0819   7538.94
 1.12402   7361.41
 1.16614   7196.42
 1.20826   7143.75
 1.25038   7105.16
 1.2925   7079.11
 1.33462   7171.43
 1.37674   7230.09
 1.41886   7352.05
 1.46098   7530.14
 1.5031   7731.8
 1.54522   7744.29
 1.58734   7699.11
 1.62946   7693.18
 1.67158   7715.06
 1.7137   7756.59
 1.75582   7777.06
 1.79794   7876.52
 1.84006   8012.09
 1.88218   8208.88
 1.9243   8395.87
 1.96642   8639.91
 2.00854   8844.38
 2.05066   9142.41
 2.09278   10000.9
 2.1349   23491.9
 2.17702   21821.4
 2.21914   12486
 2.26126   10899.3
 2.30338   10453.5
 2.3455   10632.4
 2.38762   10934.9
 2.42974   11245.1
 2.47186   11562.6
 2.51398   11888.7
 2.5561   12217.8
 2.59822   12473.2
 2.64034   12679.8
 2.68246   12797.8
 2.72458   12950.9
 2.7667   12870.5
 2.80882   12764.5
 2.85094   12669.7
 2.89306   12504
 2.93518   12322.2
 2.9773   12142.4
 3.01942   11897.6
 3.06154   11645.8
 3.10366   11413.6
 3.14578   11271.9
 3.1879   11129
 3.23002   10943.7
 3.27214   10866.1
 3.31426   10854.7
 3.35638   10776.5
 3.3985   10800
 3.44062   10828.1
 3.48274   10879.6
 3.52486   10882.7
 3.56698   11002.6
 3.6091   11011
 3.65122   11074.2
 3.69334   11434.6
 3.73546   11593.7
 3.77758   11857.8
 3.8197   13256.5
 3.86182   14242.5
 3.90394   19526.5
 3.94606   79461.1
 3.98818   59682.2
 4.0303   19463.3
 4.07242   13447
 4.11454   11761.3
 4.15666   10338.8
 4.19878   9809.91
 4.2409   9373.95
 4.28302   10163.2
 4.32514   9634.63
 4.36726   8548.33
 4.40938   7904.56
 4.4515   7562.64
 4.49362   7404.36
 4.53574   7108.29
 4.57786   6937
 4.61998   6762.58
 4.6621   6674.72
 4.70422   6612.03
 4.74634   6803.82
 4.78846   7459.6
 4.83058   9371.7
 4.8727   7963.36
 4.91482   7422.65
 4.95694   8568.61
 4.99906   10409
 5.04118   7804.95
 5.0833   7071.25
 5.12542   20984.6
 5.16754   19269.6
 5.20966   6466.6
 5.25178   6025.5
 5.2939   5916.16
 5.33602   5849.96
 5.37814   5865.18
 5.42026   5858.19
 5.46238   5950.68
 5.5045   6415.46
 5.54662   8527.44
 5.58874   9175.57
 5.63086   7286.94
 5.67298   6388.24
 5.7151   6062.28
 5.75722   6139.01
 5.79934   6110.48
 5.84146   6176.22
 5.88358   6739.17
 5.9257   11162.7
 5.96782   11432.3
 6.00994   8814.95
 6.05206   6851.4
 6.09418   6126.15
 6.1363   5956.83
 6.17842   5909.9
 6.22054   5883.55
 6.26266   5894.33
 6.30478   5939.05
 6.3469   5958.28
 6.38902   6013.99
 6.43114   6117.26
 6.47326   6215.09
 6.51538   6321.81
 6.5575   6404.56
 6.59962   6582.43
 6.64174   6833.98
 6.68386   7048.13
 6.72598   7220.18
 6.7681   7658.49
 6.81022   8241.95
 6.85234   15126.5
 6.89446   22125
 6.93658   10085.4
 6.9787   9336.94
 7.02082   8388.08
 7.06294   7981.13
 7.10506   7371.49
 7.14718   7130.04
 7.1893   6934.69
 7.23142   6857.36
 7.27354   6897
 7.31566   6819.9
 7.35778   6891.43
 7.3999   7003.7
 7.44202   7316.59
 7.48414   7418.88
 7.52626   7159.7
 7.56838   6961.79
 7.6105   6784.65
 7.65262   6483.32
 7.69474   6353.8
 7.73686   6314.53
 7.77898   6358.51
 7.8211   6444.04
 7.86322   6469.02
 7.90534   6886.13
 7.94746   24995.6
 7.98958   7032.53
 8.0317   6209.68
 8.07382   6145.85
 8.11594   6231.18
 8.15806   6163.14
 8.20018   6282.18
 8.2423   6947.22
 8.28442   7792.2
 8.32654   7155.95
 8.36866   6161.24
 8.41078   10706.4
 8.4529   5879.48
 8.49502   6013.24
 8.53714   6658.5
 8.57926   7303.87
 8.62138   6793.24
 8.6635   6005.76
 8.70562   5591.4
 8.74774   5384.03
 8.78986   5298.7
 8.83198   5316.84
 8.8741   6629.4
 8.91622   5094.53
 8.95834   5031.97
 9.00046   5018.34
 9.04258   4979.13
 9.0847   4958.71
 9.12682   4986.47
 9.16894   5082.35
 9.21106   5210
 9.25318   5327.39
 9.2953   5532.56
 9.33742   5690.9
 9.37954   5559.46
 9.42166   5237.21
 9.46378   5117.82
 9.5059   5124.14
 9.54802   5169.93
 9.59014   5296.54
 9.63226   5408.44
 9.67438   5518.47
 9.7165   6790.78
 9.75862   5259.97
 9.80074   5232.59
 9.84286   8310.26
 9.88498   8265.29
 9.9271   5351.6
 9.96922   5326.53
 10.0113   5329.76
 10.0535   5231.39
 10.0956   5191.81
 10.1377   5220.58
 10.1798   5354.27
 10.2219   5618.98
 10.2641   5822.94
 10.3062   8468.15
 10.3483   5358.23
 10.3904   5285.68
 10.4325   5352.65
 10.4747   5691.8
 10.5168   6493.35
 10.5589   5323.95
 10.601   5188.14
 10.6431   5090.09
 10.6853   5053.24
 10.7274   5113.85
 10.7695   5164.13
 10.8116   5124.62
 10.8537   5065.08
 10.8959   4953.49
 10.938   4870.08
 10.9801   4796.87
 11.0222   4787.18
 11.0643   4798.16
 11.1065   4867.93
 11.1486   4947.84
 11.1907   4922.88
 11.2328   4902.6
 11.2749   4688.63
 11.3171   4607.25
 11.3592   4544.96
 11.4013   4518.93
 11.4434   4477.29
 11.4855   4462.39
 11.5277   4448.94
 11.5698   4414.41
 11.6119   4403.27
 11.654   4387.81
 11.6961   4363.32
 11.7383   4328.96
 11.7804   4343.38
 11.8225   4374.65
 11.8646   4453.06
 11.9067   5132.58
 11.9489   4627.61
 11.991   4623.78
 12.0331   4509.76
 12.0752   4396.86
 12.1173   4314.81
 12.1595   4212.83
 12.2016   4141.56
 12.2437   4104.53
 12.2858   4091.19
 12.3279   4080.91
 12.3701   4119.31
 12.4122   4136.03
 12.4543   4143.25
 12.4964   4111.01
 12.5385   4092.52
 12.5807   4069.73
 12.6228   4101.79
 12.6649   4160.12
 12.6977   4229.96