File: docs/GuiliangJun25_tutorial_output/integrals/MA2b-00002_spotsmasked.chi
MA2b-00002.tif Azm= 0.00
2-Theta Angle (Degrees)
Intensity
       2500
 1.03978   7722.66
 1.0819   7516.48
 1.12402   7318.78
 1.16614   7218.58
 1.20826   7179.83
 1.25038   7086.71
 1.2925   7100.36
 1.33462   7146.4
 1.37674   7156.51
 1.41886   7284.62
 1.46098   7505.64
 1.5031   7709.97
 1.54522   7715.9
 1.58734   7691.57
 1.62946   7704.4
 1.67158   7678.98
 1.7137   7681.17
 1.75582   7719.52
 1.79794   7831.02
 1.84006   7986.98
 1.88218   8132.45
 1.9243   8368.9
 1.96642   8561.47
 2.00854   8774.09
 2.05066   9019.78
 2.09278   9507.41
 2.1349   13995.5
 2.17702   24541.9
 2.21914   15935.3
 2.26126   11892.9
 2.30338   10497.5
 2.3455   10642.5
 2.38762   10900.7
 2.42974   11218.1
 2.47186   11542.3
 2.51398   11857.6
 2.5561   12181.1
 2.59822   12451.1
 2.64034   12629.1
 2.68246   12739.5
 2.72458   12841.4
 2.7667   12805.5
 2.80882   12700.9
 2.85094   12571
 2.89306   12456
 2.93518   12276.4
 2.9773   12077.4
 3.01942   11858.1
 3.06154   11615.3
 3.10366   11368.7
 3.14578   11190.5
 3.1879   11044.6
 3.23002   10901
 3.27214   10797.1
 3.31426   10757.4
 3.35638   10673.6
 3.3985   10699.7
 3.44062   10713.7
 3.48274   10731.7
 3.52486   10680.1
 3.56698   10716.5
 3.6091   10694.9
 3.65122   10573
 3.69334   10530.1
 3.73546   10203.2
 3.77758   9828.36
 3.8197   9555.16
 3.86182   9291.56
 3.90394   9049.88
 3.94606   8758.99
 3.98818   8551.4
 4.0303   8382.86
 4.07242   8174.61
 4.11454   8127.77
 4.15666   7964.75
 4.19878   7815.54
 4.2409   7817.88
 4.28302   8224.31
 4.32514   8697.04
 4.36726   8903.92
 4.40938   8154.66
 4.4515   7745.22
 4.49362   7563.57
 4.53574   7099.19
 4.57786   6870.37
 4.61998   6728.63
 4.6621   6643.6
 4.70422   6610.17
 4.74634   7176.51
 4.78846   8552.1
 4.83058   8888.42
 4.8727   7115.41
 4.91482   7982.92
 4.95694   8456.95
 4.99906   8086.71
 5.04118   6714.04
 5.0833   6761.43
 5.12542   20622.3
 5.16754   19095.9
 5.20966   6380.94
 5.25178   5919.47
 5.2939   5838.43
 5.33602   5796.67
 5.37814   5808.7
 5.42026   5884.81
 5.46238   6124.1
 5.5045   7361.83
 5.54662   13059.3
 5.58874   12939.6
 5.63086   8640.5
 5.67298   6758.8
 5.7151   6080.52
 5.75722   5966.91
 5.79934   5891.46
 5.84146   5866.04
 5.88358   6125.87
 5.9257   9638.57
 5.96782   8589.18
 6.00994   6840.97
 6.05206   6191
 6.09418   5864.24
 6.1363   5804.99
 6.17842   5818.31
 6.22054   5784.88
 6.26266   5831.06
 6.30478   5862.02
 6.3469   5882.13
 6.38902   5904.77
 6.43114   5944.92
 6.47326   5970.34
 6.51538   6027.6
 6.5575   6102.66
 6.59962   6143.48
 6.64174   6225.94
 6.68386   6376.16
 6.72598   6440.34
 6.7681   6552.51
 6.81022   6675.69
 6.85234   6846.13
 6.89446   7222.88
 6.93658   7870.9
 6.9787   8069.97
 7.02082   8071.25
 7.06294   7662.46
 7.10506   6921.6
 7.14718   6691.29
 7.1893   6632.09
 7.23142   6577.52
 7.27354   6619.69
 7.31566   6654.03
 7.35778   6799.83
 7.3999   6895.28
 7.44202   6987.9
 7.48414   7166.65
 7.52626   7499.52
 7.56838   7724.7
 7.6105   7408.88
 7.65262   6494.81
 7.69474   6136.7
 7.73686   6007.18
 7.77898   5884.1
 7.8211   5801.57
 7.86322   5741.2
 7.90534   5642.45
 7.94746   5621.73
 7.98958   5544.85
 8.0317   5515.58
 8.07382   5667.34
 8.11594   6029.3
 8.15806   6155.92
 8.20018   6685.86
 8.2423   7300.76
 8.28442   6715.24
 8.32654   5855.28
 8.36866   5685.42
 8.41078   8556.98
 8.4529   6077.03
 8.49502   6304.66
 8.53714   6385.79
 8.57926   6191.02
 8.62138   5812.03
 8.6635   5600.79
 8.70562   5531.72
 8.74774   5503.1
 8.78986   5436.54
 8.83198   5310.5
 8.8741   5097.54
 8.91622   4982.06
 8.95834   4953.63
 9.00046   4966.41
 9.04258   4906.16
 9.0847   4880.96
 9.12682   4917.27
 9.16894   4984.06
 9.21106   5138.9
 9.25318   5427.23
 9.2953   5699.17
 9.33742   5709.74
 9.37954   5556.96
 9.42166   5345.32
 9.46378   5279.12
 9.5059   5316.97
 9.54802   5275.84
 9.59014   5307.98
 9.63226   5273.79
 9.67438   5177.24
 9.7165   5070.3
 9.75862   5030.5
 9.80074   5226.19
 9.84286   8213.04
 9.88498   8154.41
 9.9271   5566.73
 9.96922   5439.05
 10.0113   5372.71
 10.0535   5235
 10.0956   5177.36
 10.1377   5192.14
 10.1798   5234.77
 10.2219   5264.73
 10.2641   5464.42
 10.3062   8294.85
 10.3483   5243.21
 10.3904   5097.15
 10.4325   5090.86
 10.4747   5149.22
 10.5168   5175.98
 10.5589   5135.89
 10.601   5055.66
 10.6431   5015.81
 10.6853   5001.4
 10.7274   5059.74
 10.7695   5083.28
 10.8116   5059
 10.8537   5009.65
 10.8959   4939.42
 10.938   4861.29
 10.9801   4797.73
 11.0222   4787.37
 11.0643   4825.66
 11.1065   4950.11
 11.1486   5029.31
 11.1907   4910.08
 11.2328   4840.65
 11.2749   4754.94
 11.3171   4682.4
 11.3592   4601.83
 11.4013   4541.72
 11.4434   4517.05
 11.4855   4491.37
 11.5277   4463.06
 11.5698   4397.24
 11.6119   4382.33
 11.654   4361.99
 11.6961   4333.52
 11.7383   4318.06
 11.7804   4325.57
 11.8225   4350.27
 11.8646   4409.9
 11.9067   4972.94
 11.9489   4468.57
 11.991   4501.19
 12.0331   4486.74
 12.0752   4469.06
 12.1173   4444.48
 12.1595   4282.91
 12.2016   4152.2
 12.2437   4105.09
 12.2858   4089.35
 12.3279   4079.48
 12.3701   4103.85
 12.4122   4127.22
 12.4543   4152.59
 12.4964   4191.89
 12.5385   4166.79
 12.5807   4196.84
 12.6228   4245.95
 12.6649   4242.74
 12.6977   4214.6