File: docs/GuiliangJun25_tutorial_output/integrals/MA2b-00003_om.chi
MA2b-00003.tif Azm= 0.00
2-Theta Angle (Degrees)
Intensity
       2500
 1.03978   7726.33
 1.0819   7534.11
 1.12402   7383.34
 1.16614   7248.56
 1.20826   7192.04
 1.25038   7151.77
 1.2925   7134.82
 1.33462   7178.76
 1.37674   7230.52
 1.41886   7319.76
 1.46098   7544.56
 1.5031   7744.51
 1.54522   7805.56
 1.58734   7758.51
 1.62946   7728.11
 1.67158   7717.96
 1.7137   7764.19
 1.75582   7794.05
 1.79794   7888.19
 1.84006   8035.16
 1.88218   8215.04
 1.9243   8407.15
 1.96642   8647.72
 2.00854   8867.25
 2.05066   9101.68
 2.09278   9651.42
 2.1349   16036.2
 2.17702   24511.6
 2.21914   15039
 2.26126   11614.5
 2.30338   10528
 2.3455   10695.6
 2.38762   10931.2
 2.42974   11256.8
 2.47186   11584.3
 2.51398   11937.9
 2.5561   12221.2
 2.59822   12496.3
 2.64034   12700.3
 2.68246   12812.8
 2.72458   12881.2
 2.7667   12848.1
 2.80882   12760.4
 2.85094   12663.1
 2.89306   12496.3
 2.93518   12331.3
 2.9773   12147.8
 3.01942   11926.8
 3.06154   11662.2
 3.10366   11427
 3.14578   11233.5
 3.1879   11082.3
 3.23002   10939.2
 3.27214   10843.3
 3.31426   10786.2
 3.35638   10723.6
 3.3985   10747.6
 3.44062   10765.7
 3.48274   10767.6
 3.52486   10749.9
 3.56698   10765
 3.6091   10744.3
 3.65122   10635.9
 3.69334   10593.1
 3.73546   10261
 3.77758   9872.92
 3.8197   9610.13
 3.86182   9377.2
 3.90394   9059.42
 3.94606   8794.08
 3.98818   8639.33
 4.0303   8419.89
 4.07242   8208.98
 4.11454   8166.41
 4.15666   8018.73
 4.19878   7830.78
 4.2409   7905.55
 4.28302   8508.55
 4.32514   8907.65
 4.36726   8824.85
 4.40938   8107.52
 4.4515   7688.98
 4.49362   7524.85
 4.53574   7112.61
 4.57786   6924.99
 4.61998   6773.14
 4.6621   6663.21
 4.70422   6635.81
 4.74634   7092.04
 4.78846   8324.43
 4.83058   9141.91
 4.8727   7337.05
 4.91482   7862.69
 4.95694   8518.46
 4.99906   8641.96
 5.04118   6989.95
 5.0833   6820.74
 5.12542   8683.9
 5.16754   8594.52
 5.20966   6325.71
 5.25178   5985.59
 5.2939   5896.03
 5.33602   5837.27
 5.37814   5840.23
 5.42026   5918.96
 5.46238   6134.19
 5.5045   7167.59
 5.54662   11910.5
 5.58874   12042.7
 5.63086   8402.98
 5.67298   6734.65
 5.7151   6122.95
 5.75722   6059.31
 5.79934   5980.9
 5.84146   5981.79
 5.88358   6304.34
 5.9257   7650.16
 5.96782   8238.62
 6.00994   7296.87
 6.05206   6371.99
 6.09418   5956.72
 6.1363   5877.39
 6.17842   5874.47
 6.22054   5848.59
 6.26266   5876.35
 6.30478   5926.08
 6.3469   5939.73
 6.38902   5951.23
 6.43114   6009.5
 6.47326   5999.64
 6.51538   6075.49
 6.5575   6146.67
 6.59962   6177.51
 6.64174   6262.42
 6.68386   6425.16
 6.72598   6480.5
 6.7681   6613.77
 6.81022   6744.73
 6.85234   6924.45
 6.89446   7309.04
 6.93658   8030.04
 6.9787   8149.17
 7.02082   7993.07
 7.06294   7651.03
 7.10506   6980.77
 7.14718   6753.04
 7.1893   6676.83
 7.23142   6634.58
 7.27354   6678.99
 7.31566   6681
 7.35778   6846.51
 7.3999   6945.29
 7.44202   7081.8
 7.48414   7266.62
 7.52626   7462.69
 7.56838   7555.29
 7.6105   7240.54
 7.65262   6480.17
 7.69474   6176.82
 7.73686   6042.33
 7.77898   5914.1
 7.8211   5830.79
 7.86322   5754.86
 7.90534   5657.77
 7.94746   5647.65
 7.98958   5602.75
 8.0317   5522.84
 8.07382   5661.54
 8.11594   5950.11
 8.15806   6053.59
 8.20018   6525.67
 8.2423   7231.43
 8.28442   7015.72
 8.32654   6128.43
 8.36866   5769.22
 8.41078   7134.52
 8.4529   6002.92
 8.49502   6269.76
 8.53714   6496.24
 8.57926   6471.93
 8.62138   6060.24
 8.6635   5712.64
 8.70562   5577.71
 8.74774   5509.67
 8.78986   5403.59
 8.83198   5287.41
 8.8741   5092.95
 8.91622   5001.34
 8.95834   4981.66
 9.00046   4978.27
 9.04258   4926.96
 9.0847   4918.09
 9.12682   4954.4
 9.16894   5014.47
 9.21106   5166.46
 9.25318   5425.83
 9.2953   5676.9
 9.33742   5731.3
 9.37954   5581.94
 9.42166   5343.45
 9.46378   5263.43
 9.5059   5289.34
 9.54802   5289.98
 9.59014   5331.03
 9.63226   5326.2
 9.67438   5280.23
 9.7165   5172.59
 9.75862   5080.44
 9.80074   5236.85
 9.84286   7615.07
 9.88498   7231.52
 9.9271   5546.31
 9.96922   5450.89
 10.0113   5392.4
 10.0535   5269.22
 10.0956   5198.36
 10.1377   5231.9
 10.1798   5289.93
 10.2219   5372.43
 10.2641   5560.92
 10.3062   5962.01
 10.3483   5286.1
 10.3904   5139.97
 10.4325   5166.31
 10.4747   5226.9
 10.5168   5236.85
 10.5589   5191.42
 10.601   5087.03
 10.6431   5042.57
 10.6853   5024.76
 10.7274   5092.7
 10.7695   5123.42
 10.8116   5099.34
 10.8537   5045.89
 10.8959   4976.49
 10.938   4893.75
 10.9801   4836.12
 11.0222   4817.02
 11.0643   4839.37
 11.1065   4957.47
 11.1486   5038.96
 11.1907   4936.55
 11.2328   4861.42
 11.2749   4750.66
 11.3171   4683.49
 11.3592   4609.95
 11.4013   4566.5
 11.4434   4530.97
 11.4855   4515.05
 11.5277   4480.73
 11.5698   4425.94
 11.6119   4416.01
 11.654   4389.46
 11.6961   4354.63
 11.7383   4355.86
 11.7804   4349.79
 11.8225   4375.32
 11.8646   4441.41
 11.9067   4646.9
 11.9489   4517.28
 11.991   4552.9
 12.0331   4518.85
 12.0752   4474.38
 12.1173   4424.12
 12.1595   4283.67
 12.2016   4178.83
 12.2437   4137.09
 12.2858   4100.31
 12.3279   4102.65
 12.3701   4133.12
 12.4122   4148.75
 12.4543   4170.17
 12.4964   4183.58
 12.5385   4170.31
 12.5807   4185.07
 12.6228   4232.29
 12.6649   4265.26
 12.6977   4240.14