File: docs/GuiliangJun25_tutorial_output/integrals/MA2b-00005_arcsmasked.chi
MA2b-00005.tif Azm= 0.00
2-Theta Angle (Degrees)
Intensity
       2500
 1.03978   7794.42
 1.0819   7587.31
 1.12402   7421.64
 1.16614   7307.11
 1.20826   7248.68
 1.25038   7177.5
 1.2925   7169.4
 1.33462   7189.35
 1.37674   7282.64
 1.41886   7379.44
 1.46098   7607.21
 1.5031   7816.86
 1.54522   7827.62
 1.58734   7770.16
 1.62946   7763.65
 1.67158   7776.13
 1.7137   7799.9
 1.75582   7815.95
 1.79794   7949.7
 1.84006   8071.11
 1.88218   8244.84
 1.9243   8454.62
 1.96642   8706.3
 2.00854   8917.76
 2.05066   9188.41
 2.09278   9951.39
 2.1349   21038.7
 2.17702   23051.2
 2.21914   13346.5
 2.26126   11185.5
 2.30338   10562.9
 2.3455   10747.1
 2.38762   11004.6
 2.42974   11307.7
 2.47186   11647.9
 2.51398   12008.7
 2.5561   12306.5
 2.59822   12562.9
 2.64034   12779
 2.68246   12904.8
 2.72458   13028.3
 2.7667   12977.2
 2.80882   12900.8
 2.85094   12738.8
 2.89306   12596.7
 2.93518   12418.2
 2.9773   12238.8
 3.01942   11990.2
 3.06154   11759.6
 3.10366   11533
 3.14578   11365.9
 3.1879   11212.3
 3.23002   11076.1
 3.27214   10995.1
 3.31426   10950.1
 3.35638   10881
 3.3985   10924.5
 3.44062   10980.3
 3.48274   10975.2
 3.52486   11019.1
 3.56698   11177.5
 3.6091   11159.2
 3.65122   11222.6
 3.69334   11703.1
 3.73546   11825.8
 3.77758   12127.7
 3.8197   13814.7
 3.86182   14744.6
 3.90394   22265.2
 3.94606   81149.7
 3.98818   56918.1
 4.0303   20042.5
 4.07242   13975.2
 4.11454   12048.7
 4.15666   10531.9
 4.19878   10005.8
 4.2409   9510.01
 4.28302   9951.78
 4.32514   9758.01
 4.36726   8845.17
 4.40938   8077.84
 4.4515   7703.13
 4.49362   7532.25
 4.53574   7195.4
 4.57786   6998.21
 4.61998   6835.07
 4.6621   6751.37
 4.70422   6689.01
 4.74634   6949.82
 4.78846   7810.22
 4.83058   9443.08
 4.8727   7828.65
 4.91482   7628.32
 4.95694   8651.13
 4.99906   9907.47
 5.04118   7593.25
 5.0833   7029.76
 5.12542   8908.79
 5.16754   8759.61
 5.20966   6389.29
 5.25178   6076.75
 5.2939   5958.64
 5.33602   5895.1
 5.37814   5917.89
 5.42026   5931.91
 5.46238   6063.53
 5.5045   6691.46
 5.54662   9563.49
 5.58874   10151.8
 5.63086   7727.24
 5.67298   6564.26
 5.7151   6154.24
 5.75722   6198.63
 5.79934   6125.09
 5.84146   6205.07
 5.88358   6686.86
 5.9257   8571.18
 5.96782   9782.32
 6.00994   8383.79
 6.05206   6765.56
 6.09418   6127.71
 6.1363   5988.22
 6.17842   5943.47
 6.22054   5924.32
 6.26266   5951.18
 6.30478   5994.99
 6.3469   6012.88
 6.38902   6062.7
 6.43114   6162.08
 6.47326   6260.71
 6.51538   6381.86
 6.5575   6477.53
 6.59962   6668.2
 6.64174   6942.34
 6.68386   7146.93
 6.72598   7326.66
 6.7681   7805.01
 6.81022   8551.24
 6.85234   18640.5
 6.89446   30513.7
 6.93658   10404.9
 6.9787   9521.69
 7.02082   8621.37
 7.06294   8149.65
 7.10506   7473.08
 7.14718   7204
 7.1893   7020.4
 7.23142   6920.89
 7.27354   6961.31
 7.31566   6897.57
 7.35778   6946.58
 7.3999   7054.52
 7.44202   7288.8
 7.48414   7410.54
 7.52626   7295.11
 7.56838   7185.2
 7.6105   6971.14
 7.65262   6574.32
 7.69474   6420.74
 7.73686   6360.01
 7.77898   6418.71
 7.8211   6493.71
 7.86322   6519.02
 7.90534   6886.85
 7.94746   24806.4
 7.98958   7036.5
 8.0317   6261.46
 8.07382   6204.16
 8.11594   6339.19
 8.15806   6296.03
 8.20018   6503.6
 8.2423   7200.07
 8.28442   7721.52
 8.32654   6903.9
 8.36866   6118.91
 8.41078   10158.7
 8.4529   5983.64
 8.49502   6152.64
 8.53714   6693.16
 8.57926   7073.84
 8.62138   6602.79
 8.6635   5977.33
 8.70562   5652.8
 8.74774   5484.37
 8.78986   5387.78
 8.83198   5414.38
 8.8741   6697.88
 8.91622   5146.02
 8.95834   5065.25
 9.00046   5059.12
 9.04258   5016.92
 9.0847   4999.46
 9.12682   5028.57
 9.16894   5096.73
 9.21106   5225.78
 9.25318   5389.54
 9.2953   5615.15
 9.33742   5741.22
 9.37954   5587.43
 9.42166   5303.51
 9.46378   5179.95
 9.5059   5205.27
 9.54802   5244.38
 9.59014   5343.31
 9.63226   5424.03
 9.67438   5519.86
 9.7165   6635.22
 9.75862   5261.15
 9.80074   5266.24
 9.84286   7790.07
 9.88498   7645.29
 9.9271   5456.3
 9.96922   5394
 10.0113   5377.19
 10.0535   5279.41
 10.0956   5241.84
 10.1377   5254.85
 10.1798   5369.99
 10.2219   5582.76
 10.2641   5762.1
 10.3062   6102.91
 10.3483   5387.9
 10.3904   5292.63
 10.4325   5349.65
 10.4747   5668.21
 10.5168   6488.08
 10.5589   5355.09
 10.601   5211.44
 10.6431   5129.03
 10.6853   5079.97
 10.7274   5148.84
 10.7695   5184
 10.8116   5162.86
 10.8537   5095.94
 10.8959   5003.33
 10.938   4907.95
 10.9801   4845.53
 11.0222   4828.4
 11.0643   4839.02
 11.1065   4921.12
 11.1486   5006.82
 11.1907   4959.58
 11.2328   4977.82
 11.2749   4730.2
 11.3171   4669.62
 11.3592   4590.92
 11.4013   4560.18
 11.4434   4529.08
 11.4855   4505.82
 11.5277   4482.41
 11.5698   4439.3
 11.6119   4438.97
 11.654   4408.23
 11.6961   4381.26
 11.7383   4365.21
 11.7804   4378.33
 11.8225   4394.55
 11.8646   4485.38
 11.9067   4803.27
 11.9489   4634.41
 11.991   4634.66
 12.0331   4556.94
 12.0752   4452.94
 12.1173   4379.58
 12.1595   4264.35
 12.2016   4187.07
 12.2437   4141.37
 12.2858   4118.66
 12.3279   4108.26
 12.3701   4148.89
 12.4122   4160.79
 12.4543   4172.15
 12.4964   4155.41
 12.5385   4134.05
 12.5807   4139.14
 12.6228   4178.53
 12.6649   4228.7
 12.6977   4270.65