File: docs/GuiliangJun25_tutorial_output/integrals/MA2b-00002_om.chi
MA2b-00002.tif Azm= 0.00
2-Theta Angle (Degrees)
Intensity
       2500
 1.03978   7722.66
 1.0819   7520.82
 1.12402   7318.78
 1.16614   7218.58
 1.20826   7174.88
 1.25038   7086.71
 1.2925   7100.36
 1.33462   7142.89
 1.37674   7160.15
 1.41886   7281.4
 1.46098   7502.39
 1.5031   7710.23
 1.54522   7719.53
 1.58734   7688.83
 1.62946   7701.38
 1.67158   7678.98
 1.7137   7681.17
 1.75582   7719.52
 1.79794   7828.74
 1.84006   7986.96
 1.88218   8131.66
 1.9243   8368.9
 1.96642   8561.47
 2.00854   8774.09
 2.05066   9017.65
 2.09278   9507.41
 2.1349   13995.5
 2.17702   24541.9
 2.21914   15935.3
 2.26126   11892.9
 2.30338   10503.4
 2.3455   10642.4
 2.38762   10900.7
 2.42974   11216.4
 2.47186   11544.4
 2.51398   11857.6
 2.5561   12181.1
 2.59822   12451.1
 2.64034   12627
 2.68246   12739.5
 2.72458   12841.4
 2.7667   12809.4
 2.80882   12704.1
 2.85094   12569.3
 2.89306   12456
 2.93518   12277.8
 2.9773   12077.4
 3.01942   11860
 3.06154   11616.3
 3.10366   11368.7
 3.14578   11187
 3.1879   11044.6
 3.23002   10901
 3.27214   10797.1
 3.31426   10757.4
 3.35638   10675.4
 3.3985   10697.8
 3.44062   10713.7
 3.48274   10729.4
 3.52486   10680.1
 3.56698   10716.5
 3.6091   10694.9
 3.65122   10573
 3.69334   10530.1
 3.73546   10203.2
 3.77758   9828.36
 3.8197   9555.16
 3.86182   9291.56
 3.90394   9049.88
 3.94606   8758.99
 3.98818   8551.4
 4.0303   8382.86
 4.07242   8174.61
 4.11454   8127.77
 4.15666   7964.75
 4.19878   7815.54
 4.2409   7817.88
 4.28302   8193.19
 4.32514   8697.04
 4.36726   8903.92
 4.40938   8154.66
 4.4515   7738.43
 4.49362   7563.57
 4.53574   7099.19
 4.57786   6867.58
 4.61998   6728.63
 4.6621   6643.6
 4.70422   6610.17
 4.74634   7176.51
 4.78846   8552.1
 4.83058   8888.42
 4.8727   7115.41
 4.91482   7982.92
 4.95694   8456.95
 4.99906   8085.5
 5.04118   6714.04
 5.0833   6682.42
 5.12542   8572.75
 5.16754   8592.67
 5.20966   6249.06
 5.25178   5916.04
 5.2939   5838.43
 5.33602   5794.44
 5.37814   5807.78
 5.42026   5881.99
 5.46238   6125.81
 5.5045   7360.51
 5.54662   13059.3
 5.58874   12939.6
 5.63086   8640.5
 5.67298   6759.88
 5.7151   6078.02
 5.75722   5963.12
 5.79934   5890.32
 5.84146   5866.87
 5.88358   6125.87
 5.9257   7241.7
 5.96782   7569.07
 6.00994   6838.98
 6.05206   6183.91
 6.09418   5864.24
 6.1363   5804.99
 6.17842   5818.31
 6.22054   5784.88
 6.26266   5831.06
 6.30478   5858.9
 6.3469   5882.13
 6.38902   5904.77
 6.43114   5943.11
 6.47326   5966.14
 6.51538   6027.6
 6.5575   6102.66
 6.59962   6143.48
 6.64174   6225.94
 6.68386   6376.16
 6.72598   6440.34
 6.7681   6552.51
 6.81022   6675.69
 6.85234   6846.13
 6.89446   7222.88
 6.93658   7870.9
 6.9787   8069.97
 7.02082   8071.25
 7.06294   7656.41
 7.10506   6921.6
 7.14718   6691.29
 7.1893   6632.09
 7.23142   6577.52
 7.27354   6619.69
 7.31566   6654.03
 7.35778   6797.69
 7.3999   6894.32
 7.44202   6987.9
 7.48414   7166.65
 7.52626   7498.35
 7.56838   7724.7
 7.6105   7408.88
 7.65262   6494.81
 7.69474   6132.21
 7.73686   6007.18
 7.77898   5884.1
 7.8211   5800.03
 7.86322   5741.2
 7.90534   5639.38
 7.94746   5618.56
 7.98958   5544.85
 8.0317   5514.19
 8.07382   5667.34
 8.11594   6029.3
 8.15806   6155.92
 8.20018   6684.57
 8.2423   7300.76
 8.28442   6715.24
 8.32654   5852.03
 8.36866   5682.95
 8.41078   7086.21
 8.4529   6075.89
 8.49502   6304.66
 8.53714   6384.03
 8.57926   6191.02
 8.62138   5811.1
 8.6635   5598.15
 8.70562   5530.11
 8.74774   5503.1
 8.78986   5435.04
 8.83198   5308.82
 8.8741   5090.94
 8.91622   4982.15
 8.95834   4953.02
 9.00046   4965.85
 9.04258   4905.6
 9.0847   4880.4
 9.12682   4916.69
 9.16894   4981.89
 9.21106   5136.67
 9.25318   5424.3
 9.2953   5697.88
 9.33742   5707.68
 9.37954   5555.53
 9.42166   5345.34
 9.46378   5279.59
 9.5059   5316.42
 9.54802   5275.9
 9.59014   5306.91
 9.63226   5273.03
 9.67438   5176
 9.7165   5070.27
 9.75862   5027.94
 9.80074   5225.52
 9.84286   7622.25
 9.88498   7270.42
 9.9271   5566.73
 9.96922   5437.71
 10.0113   5370.74
 10.0535   5234.13
 10.0956   5175.52
 10.1377   5189.93
 10.1798   5230.3
 10.2219   5262.65
 10.2641   5451.04
 10.3062   5909.21
 10.3483   5241.76
 10.3904   5096.31
 10.4325   5090.86
 10.4747   5146.15
 10.5168   5173.67
 10.5589   5135.89
 10.601   5054.92
 10.6431   5014.47
 10.6853   4999.67
 10.7274   5058.54
 10.7695   5080.7
 10.8116   5057.25
 10.8537   5008.49
 10.8959   4937.24
 10.938   4859.67
 10.9801   4798.21
 11.0222   4787.31
 11.0643   4825.18
 11.1065   4950.12
 11.1486   5028.76
 11.1907   4908.3
 11.2328   4840.65
 11.2749   4754.25
 11.3171   4683.15
 11.3592   4602.05
 11.4013   4543.26
 11.4434   4517.85
 11.4855   4490.59
 11.5277   4461.51
 11.5698   4397.64
 11.6119   4382.34
 11.654   4361.54
 11.6961   4332.67
 11.7383   4317.62
 11.7804   4325.97
 11.8225   4349.87
 11.8646   4405.92
 11.9067   4604.07
 11.9489   4467.13
 11.991   4499.85
 12.0331   4485.59
 12.0752   4469.52
 12.1173   4444.48
 12.1595   4281.7
 12.2016   4150.29
 12.2437   4105.09
 12.2858   4088.33
 12.3279   4077.46
 12.3701   4103.61
 12.4122   4125.82
 12.4543   4151.59
 12.4964   4190.39
 12.5385   4165.72
 12.5807   4196.71
 12.6228   4245.68
 12.6649   4242.56
 12.6977   4213.7