File: docs/GuiliangJun25_tutorial_output/integrals/MA2b-00005_om.chi
MA2b-00005.tif Azm= 0.00
2-Theta Angle (Degrees)
Intensity
       2500
 1.03978   7794.42
 1.0819   7587.31
 1.12402   7421.64
 1.16614   7307.11
 1.20826   7244.59
 1.25038   7177.5
 1.2925   7165.18
 1.33462   7183.97
 1.37674   7271.91
 1.41886   7367.63
 1.46098   7594.08
 1.5031   7795.22
 1.54522   7816.5
 1.58734   7759.41
 1.62946   7755.7
 1.67158   7757.42
 1.7137   7779.76
 1.75582   7815.83
 1.79794   7926.7
 1.84006   8066.85
 1.88218   8237.39
 1.9243   8439.84
 1.96642   8681.17
 2.00854   8907.34
 2.05066   9178.34
 2.09278   9941.86
 2.1349   21038.7
 2.17702   23051.2
 2.21914   13343.1
 2.26126   11171.5
 2.30338   10557
 2.3455   10738.4
 2.38762   10998.1
 2.42974   11301.8
 2.47186   11644.1
 2.51398   12001.3
 2.5561   12304.4
 2.59822   12557.1
 2.64034   12762.8
 2.68246   12851.9
 2.72458   12947.3
 2.7667   12910.7
 2.80882   12857.9
 2.85094   12686.5
 2.89306   12551.9
 2.93518   12388.5
 2.9773   12197.8
 3.01942   11969
 3.06154   11728.3
 3.10366   11503.5
 3.14578   11295.4
 3.1879   11148.4
 3.23002   11012.1
 3.27214   10914.6
 3.31426   10844.5
 3.35638   10785.9
 3.3985   10813.6
 3.44062   10814.2
 3.48274   10801.7
 3.52486   10815.7
 3.56698   10822.7
 3.6091   10789.8
 3.65122   10709.9
 3.69334   10684.8
 3.73546   10375.6
 3.77758   9917.76
 3.8197   9672.69
 3.86182   9439.14
 3.90394   9169.81
 3.94606   8890.64
 3.98818   8700.88
 4.0303   8520.62
 4.07242   8286.54
 4.11454   8219.2
 4.15666   8080.55
 4.19878   7924.74
 4.2409   8031.89
 4.28302   9208.16
 4.32514   9166.58
 4.36726   8493.77
 4.40938   7870.87
 4.4515   7592.23
 4.49362   7453.68
 4.53574   7151.17
 4.57786   6991.48
 4.61998   6831.62
 4.6621   6746.46
 4.70422   6684.56
 4.74634   6945.21
 4.78846   7805.88
 4.83058   9435.07
 4.8727   7826.7
 4.91482   7626.31
 4.95694   8647.24
 4.99906   9903.42
 5.04118   7591.78
 5.0833   7029.76
 5.12542   8782.61
 5.16754   8759.61
 5.20966   6389.29
 5.25178   6036.93
 5.2939   5930.92
 5.33602   5876.43
 5.37814   5856.08
 5.42026   5901.82
 5.46238   6041.58
 5.5045   6654.1
 5.54662   9548.41
 5.58874   10050.8
 5.63086   7651.02
 5.67298   6537.97
 5.7151   6139.19
 5.75722   6153.61
 5.79934   6099.94
 5.84146   6192.7
 5.88358   6678.75
 5.9257   8507.13
 5.96782   9779.65
 6.00994   8376.29
 6.05206   6755.21
 6.09418   6127.71
 6.1363   5985.81
 6.17842   5943.46
 6.22054   5920.33
 6.26266   5948.11
 6.30478   5977.33
 6.3469   5988.92
 6.38902   6006.79
 6.43114   6051.1
 6.47326   6062.74
 6.51538   6124.57
 6.5575   6184.15
 6.59962   6231
 6.64174   6330.75
 6.68386   6486.53
 6.72598   6546.43
 6.7681   6675.42
 6.81022   6812.95
 6.85234   6955.29
 6.89446   7472.39
 6.93658   8291.81
 6.9787   8195.67
 7.02082   7820.41
 7.06294   7594.39
 7.10506   7011.27
 7.14718   6799.8
 7.1893   6726.63
 7.23142   6689.05
 7.27354   6737.77
 7.31566   6745.62
 7.35778   6870.35
 7.3999   7031.98
 7.44202   7284.93
 7.48414   7410.54
 7.52626   7295.11
 7.56838   7179.5
 7.6105   6909.96
 7.65262   6425.4
 7.69474   6179.42
 7.73686   6058.75
 7.77898   5931.24
 7.8211   5859.8
 7.86322   5795.13
 7.90534   5699.64
 7.94746   5684.44
 7.98958   5619.24
 8.0317   5567.43
 8.07382   5613.76
 8.11594   5784.77
 8.15806   5852.5
 8.20018   6169.37
 8.2423   6910.28
 8.28442   7485.67
 8.32654   6745.76
 8.36866   5944.59
 8.41078   7099.31
 8.4529   5880.94
 8.49502   6082.2
 8.53714   6642.28
 8.57926   7025.1
 8.62138   6563.71
 8.6635   5922.79
 8.70562   5587.97
 8.74774   5411.32
 8.78986   5299.41
 8.83198   5210.38
 8.8741   5074.25
 8.91622   5027.2
 8.95834   4986.76
 9.00046   4992.71
 9.04258   4963.32
 9.0847   4949.15
 9.12682   4990.44
 9.16894   5069.25
 9.21106   5204.73
 9.25318   5378.75
 9.2953   5603.72
 9.33742   5735.03
 9.37954   5583.54
 9.42166   5299.94
 9.46378   5175.85
 9.5059   5198.53
 9.54802   5226.34
 9.59014   5318.09
 9.63226   5386.74
 9.67438   5435.26
 9.7165   5349.68
 9.75862   5143.79
 9.80074   5223.07
 9.84286   7541.89
 9.88498   7087.76
 9.9271   5456.3
 9.96922   5392.22
 10.0113   5375.37
 10.0535   5278.48
 10.0956   5239.34
 10.1377   5252.34
 10.1798   5364.3
 10.2219   5575.01
 10.2641   5761.02
 10.3062   6085.01
 10.3483   5356.89
 10.3904   5209.98
 10.4325   5262.3
 10.4747   5383.9
 10.5168   5390.99
 10.5589   5276.17
 10.601   5140.37
 10.6431   5068.93
 10.6853   5043.52
 10.7274   5125.52
 10.7695   5165.66
 10.8116   5151.34
 10.8537   5092.79
 10.8959   4998.84
 10.938   4905.49
 10.9801   4843.31
 11.0222   4826.36
 11.0643   4839.16
 11.1065   4920.38
 11.1486   5001.81
 11.1907   4958.52
 11.2328   4875.1
 11.2749   4729.18
 11.3171   4663.83
 11.3592   4590.86
 11.4013   4558.98
 11.4434   4529.49
 11.4855   4505.77
 11.5277   4480.01
 11.5698   4437.38
 11.6119   4437.9
 11.654   4407.26
 11.6961   4378.76
 11.7383   4361.61
 11.7804   4374.72
 11.8225   4388.89
 11.8646   4480.47
 11.9067   4723.92
 11.9489   4617.02
 11.991   4627.68
 12.0331   4549.28
 12.0752   4444.03
 12.1173   4375.13
 12.1595   4259.58
 12.2016   4182.72
 12.2437   4136.9
 12.2858   4116.02
 12.3279   4105.52
 12.3701   4145.55
 12.4122   4156.42
 12.4543   4169.12
 12.4964   4153.36
 12.5385   4123.12
 12.5807   4130.43
 12.6228   4173.84
 12.6649   4225.8
 12.6977   4267.17