File: docs/GuiliangJun25_tutorial_output/integrals/MA2b-00007_spotsmasked.chi
MA2b-00007.tif Azm= 0.00
2-Theta Angle (Degrees)
Intensity
       2500
 1.03978   7792.69
 1.0819   7596.63
 1.12402   7418.64
 1.16614   7306.25
 1.20826   7251.32
 1.25038   7167.88
 1.2925   7150.96
 1.33462   7206.99
 1.37674   7277.74
 1.41886   7387.82
 1.46098   7582.02
 1.5031   7779.52
 1.54522   7814.71
 1.58734   7755.66
 1.62946   7735.77
 1.67158   7758.96
 1.7137   7747.78
 1.75582   7836.84
 1.79794   7931.82
 1.84006   8070.45
 1.88218   8243.98
 1.9243   8477.22
 1.96642   8686.98
 2.00854   8924.22
 2.05066   9230.19
 2.09278   10245.4
 2.1349   26322
 2.17702   20841.8
 2.21914   12023.5
 2.26126   10815.5
 2.30338   10509.9
 2.3455   10721.9
 2.38762   10978
 2.42974   11313.5
 2.47186   11646.2
 2.51398   11951.7
 2.5561   12261.9
 2.59822   12560.1
 2.64034   12730
 2.68246   12873.6
 2.72458   12881.5
 2.7667   12882.7
 2.80882   12815.5
 2.85094   12662.7
 2.89306   12523.4
 2.93518   12367.9
 2.9773   12164.5
 3.01942   11961
 3.06154   11675.8
 3.10366   11468.6
 3.14578   11283.3
 3.1879   11163
 3.23002   10993
 3.27214   10914.2
 3.31426   10862.3
 3.35638   10829.9
 3.3985   10805.3
 3.44062   10841.8
 3.48274   10813.4
 3.52486   10811.1
 3.56698   10822.4
 3.6091   10806.2
 3.65122   10699.4
 3.69334   10652
 3.73546   10329.5
 3.77758   9931.46
 3.8197   9647.23
 3.86182   9475.59
 3.90394   9142.38
 3.94606   8859.5
 3.98818   8686.1
 4.0303   8482.29
 4.07242   8282.15
 4.11454   8226.38
 4.15666   8043.6
 4.19878   7917.7
 4.2409   8086.22
 4.28302   9861.35
 4.32514   9102.2
 4.36726   8173.16
 4.40938   7722.57
 4.4515   7558.15
 4.49362   7386.29
 4.53574   7128.84
 4.57786   6953.62
 4.61998   6805.6
 4.6621   6706.65
 4.70422   6639
 4.74634   6778.53
 4.78846   7307.15
 4.83058   9389.35
 4.8727   8226.47
 4.91482   7353.33
 4.95694   8558.51
 4.99906   10944.1
 5.04118   8116.42
 5.0833   7183.35
 5.12542   21399.7
 5.16754   19450
 5.20966   6508
 5.25178   6023.59
 5.2939   5911.82
 5.33602   5867.11
 5.37814   5821.07
 5.42026   5839.54
 5.46238   5905.86
 5.5045   6248.4
 5.54662   7842.85
 5.58874   8441.48
 5.63086   6982.85
 5.67298   6278.96
 5.7151   6054.3
 5.75722   6132.15
 5.79934   6135.33
 5.84146   6248.53
 5.88358   6826.91
 5.9257   11471.5
 5.96782   12110.9
 6.00994   9307.67
 6.05206   7023.72
 6.09418   6204.83
 6.1363   6006.64
 6.17842   5965.78
 6.22054   5914.81
 6.26266   5940.69
 6.30478   5987.6
 6.3469   5993.87
 6.38902   6002.33
 6.43114   6087.72
 6.47326   6108.92
 6.51538   6134.16
 6.5575   6207.67
 6.59962   6230.1
 6.64174   6326.04
 6.68386   6515.63
 6.72598   6569.17
 6.7681   6698.68
 6.81022   6811.88
 6.85234   6971.79
 6.89446   7579.29
 6.93658   8538.26
 6.9787   8187.45
 7.02082   7633.61
 7.06294   7494.89
 7.10506   6987.15
 7.14718   6800.78
 7.1893   6747.14
 7.23142   6692.86
 7.27354   6729.56
 7.31566   6744.46
 7.35778   6882.04
 7.3999   7060.04
 7.44202   7439.76
 7.48414   7513.29
 7.52626   7131.35
 7.56838   6867.04
 7.6105   6653.71
 7.65262   6332.63
 7.69474   6150.01
 7.73686   6034.91
 7.77898   5900.05
 7.8211   5848.16
 7.86322   5776.94
 7.90534   5688.19
 7.94746   5650.9
 7.98958   5618.58
 8.0317   5543.8
 8.07382   5557.2
 8.11594   5636.8
 8.15806   5698.27
 8.20018   5853.56
 8.2423   6490.03
 8.28442   7636.53
 8.32654   7358.29
 8.36866   6147.41
 8.41078   8587.32
 8.4529   5761.08
 8.49502   5915.96
 8.53714   6649.87
 8.57926   7553.62
 8.62138   7005.81
 8.6635   6058.28
 8.70562   5541.36
 8.74774   5321.36
 8.78986   5208.5
 8.83198   5137.59
 8.8741   5055.9
 8.91622   5000.41
 8.95834   4981.23
 9.00046   4982.97
 9.04258   4959.47
 9.0847   4937.14
 9.12682   4991.99
 9.16894   5096.98
 9.21106   5233.36
 9.25318   5342.23
 9.2953   5514.82
 9.33742   5712.29
 9.37954   5582.2
 9.42166   5262.68
 9.46378   5114.12
 9.5059   5123.75
 9.54802   5142.28
 9.59014   5287.18
 9.63226   5409.67
 9.67438   5515.4
 9.7165   5510.24
 9.75862   5211.04
 9.80074   5212.62
 9.84286   8140.66
 9.88498   8040.54
 9.9271   5350.61
 9.96922   5337.2
 10.0113   5356.44
 10.0535   5258.69
 10.0956   5229.93
 10.1377   5251.28
 10.1798   5396.46
 10.2219   5688.61
 10.2641   5954.65
 10.3062   8546.9
 10.3483   5389.46
 10.3904   5258.39
 10.4325   5352.83
 10.4747   5490.64
 10.5168   5467.37
 10.5589   5303.5
 10.601   5142.66
 10.6431   5054.62
 10.6853   5041.4
 10.7274   5135.09
 10.7695   5174.56
 10.8116   5166.56
 10.8537   5107.48
 10.8959   4984.94
 10.938   4898.48
 10.9801   4836.02
 11.0222   4813.36
 11.0643   4815.03
 11.1065   4867.91
 11.1486   4964.87
 11.1907   4957.58
 11.2328   4849.32
 11.2749   4692.56
 11.3171   4620.87
 11.3592   4568.68
 11.4013   4538.37
 11.4434   4507.37
 11.4855   4490.07
 11.5277   4466.62
 11.5698   4431.69
 11.6119   4433.93
 11.654   4405.04
 11.6961   4388.22
 11.7383   4360.32
 11.7804   4375.56
 11.8225   4393.71
 11.8646   4488.82
 11.9067   5138.85
 11.9489   4675.03
 11.991   4660.13
 12.0331   4541.5
 12.0752   4408.33
 12.1173   4308.84
 12.1595   4227.46
 12.2016   4164.26
 12.2437   4127.09
 12.2858   4108.54
 12.3279   4105.21
 12.3701   4143.31
 12.4122   4159.66
 12.4543   4153.79
 12.4964   4117.4
 12.5385   4080.06
 12.5807   4063.92
 12.6228   4097.29
 12.6649   4169.08
 12.6977   4238.71