File: docs/GuiliangJun25_tutorial_output/integrals/MA2b-00001_om.chi
MA2b-00001.tif Azm= 0.00
2-Theta Angle (Degrees)
Intensity
       2500
 1.03978   7636.89
 1.0819   7432.07
 1.12402   7275.57
 1.16614   7165.12
 1.20826   7085.51
 1.25038   7033.53
 1.2925   7041.63
 1.33462   7070.44
 1.37674   7125.81
 1.41886   7254
 1.46098   7475.38
 1.5031   7663.34
 1.54522   7667.95
 1.58734   7640.27
 1.62946   7631.02
 1.67158   7651.93
 1.7137   7651.65
 1.75582   7699.9
 1.79794   7781.6
 1.84006   7919.62
 1.88218   8114.38
 1.9243   8317.39
 1.96642   8512.78
 2.00854   8744.24
 2.05066   8963.48
 2.09278   9388.58
 2.1349   12488.6
 2.17702   23916.8
 2.21914   16858.7
 2.26126   12212.9
 2.30338   10477.1
 2.3455   10569.2
 2.38762   10814
 2.42974   11145.8
 2.47186   11464
 2.51398   11786.4
 2.5561   12092.5
 2.59822   12375.9
 2.64034   12572.2
 2.68246   12684.6
 2.72458   12765.3
 2.7667   12721.9
 2.80882   12631.2
 2.85094   12520.2
 2.89306   12363.8
 2.93518   12197
 2.9773   12002.2
 3.01942   11780.3
 3.06154   11537.4
 3.10366   11281.4
 3.14578   11111.1
 3.1879   10987.8
 3.23002   10823.8
 3.27214   10738.4
 3.31426   10690.9
 3.35638   10611.5
 3.3985   10606.6
 3.44062   10656
 3.48274   10630.8
 3.52486   10621.6
 3.56698   10633
 3.6091   10625.3
 3.65122   10485.8
 3.69334   10462.1
 3.73546   10181.5
 3.77758   9751.91
 3.8197   9465.25
 3.86182   9256.96
 3.90394   8933.11
 3.94606   8677.7
 3.98818   8493.76
 4.0303   8333.74
 4.07242   8113.26
 4.11454   8070.9
 4.15666   7911.6
 4.19878   7725.22
 4.2409   7765.79
 4.28302   7954.36
 4.32514   8476.8
 4.36726   8887.36
 4.40938   8237.73
 4.4515   7774.88
 4.49362   7578.75
 4.53574   7059.25
 4.57786   6845.24
 4.61998   6670.29
 4.6621   6593.68
 4.70422   6607.02
 4.74634   7275.04
 4.78846   8724.93
 4.83058   8568.99
 4.8727   6915.67
 4.91482   8116.76
 4.95694   8393.26
 4.99906   7664.78
 5.04118   6504.43
 5.0833   6624.41
 5.12542   8438.06
 5.16754   8500.93
 5.20966   6189.12
 5.25178   5872.63
 5.2939   5780.62
 5.33602   5743.44
 5.37814   5762.87
 5.42026   5840.71
 5.46238   6111.22
 5.5045   7444.18
 5.54662   14091.7
 5.58874   13687.1
 5.63086   8719.17
 5.67298   6677.92
 5.7151   5968.91
 5.75722   5888.87
 5.79934   5787.81
 5.84146   5750.25
 5.88358   5975.29
 5.9257   6934.31
 5.96782   7093.27
 6.00994   6499.96
 6.05206   6025.14
 6.09418   5786.79
 6.1363   5750.74
 6.17842   5759.45
 6.22054   5754.02
 6.26266   5772.77
 6.30478   5817.52
 6.3469   5845.98
 6.38902   5877.42
 6.43114   5902.06
 6.47326   5905.73
 6.51538   5965.97
 6.5575   6068.01
 6.59962   6097.67
 6.64174   6159.74
 6.68386   6326.15
 6.72598   6390.98
 6.7681   6491.44
 6.81022   6632.09
 6.85234   6769.96
 6.89446   7139.41
 6.93658   7694.86
 6.9787   8037.4
 7.02082   8138.06
 7.06294   7629.76
 7.10506   6855.35
 7.14718   6614.42
 7.1893   6540.6
 7.23142   6508.57
 7.27354   6545.92
 7.31566   6569.96
 7.35778   6737.2
 7.3999   6799.84
 7.44202   6868.12
 7.48414   7059
 7.52626   7508.2
 7.56838   7876.15
 7.6105   7574.68
 7.65262   6491.2
 7.69474   6123.84
 7.73686   5981.34
 7.77898   5840.57
 7.8211   5774.4
 7.86322   5712.27
 7.90534   5598.08
 7.94746   5566.3
 7.98958   5537.35
 8.0317   5484.13
 8.07382   5686.77
 8.11594   6131.81
 8.15806   6259.51
 8.20018   6814.8
 8.2423   7273.14
 8.28442   6415
 8.32654   5628.62
 8.36866   5617.38
 8.41078   7132.62
 8.4529   6105.56
 8.49502   6315.59
 8.53714   6248.37
 8.57926   5944.75
 8.62138   5596.74
 8.6635   5466.46
 8.70562   5493.14
 8.74774   5498.16
 8.78986   5461.87
 8.83198   5336.8
 8.8741   5079.38
 8.91622   4947.02
 8.95834   4922.29
 9.00046   4938.58
 9.04258   4870.75
 9.0847   4836.16
 9.12682   4866.42
 9.16894   4953.62
 9.21106   5086.85
 9.25318   5415.4
 9.2953   5704.28
 9.33742   5683.39
 9.37954   5530.8
 9.42166   5340.04
 9.46378   5293.53
 9.5059   5337.74
 9.54802   5274.71
 9.59014   5278.8
 9.63226   5211.76
 9.67438   5084.12
 9.7165   4991.8
 9.75862   4985.54
 9.80074   5228.54
 9.84286   7657.81
 9.88498   7266.53
 9.9271   5569.91
 9.96922   5417.97
 10.0113   5324.29
 10.0535   5185.23
 10.0956   5128.28
 10.1377   5155.13
 10.1798   5181.78
 10.2219   5179.01
 10.2641   5348.02
 10.3062   5829.31
 10.3483   5192.09
 10.3904   5042.75
 10.4325   5043.44
 10.4747   5084.02
 10.5168   5092.72
 10.5589   5080.78
 10.601   5023.14
 10.6431   4977.27
 10.6853   4966.15
 10.7274   5035.19
 10.7695   5038.31
 10.8116   5008.1
 10.8537   4964.22
 10.8959   4905.87
 10.938   4816.72
 10.9801   4758.53
 11.0222   4758.06
 11.0643   4799.66
 11.1065   4946.2
 11.1486   5016.49
 11.1907   4880.32
 11.2328   4808.21
 11.2749   4723.7
 11.3171   4665.58
 11.3592   4585.8
 11.4013   4527.3
 11.4434   4492.85
 11.4855   4483.32
 11.5277   4438.48
 11.5698   4361.96
 11.6119   4359.63
 11.654   4330.01
 11.6961   4300.41
 11.7383   4287.63
 11.7804   4298.42
 11.8225   4313.84
 11.8646   4370.22
 11.9067   4557.8
 11.9489   4410.01
 11.991   4451.77
 12.0331   4464.38
 12.0752   4471.09
 12.1173   4457.21
 12.1595   4286.93
 12.2016   4142.48
 12.2437   4079.7
 12.2858   4056.56
 12.3279   4051.13
 12.3701   4086.08
 12.4122   4101.4
 12.4543   4157.59
 12.4964   4182.76
 12.5385   4165.31
 12.5807   4186.32
 12.6228   4229.1
 12.6649   4209.46
 12.6977   4160.38