File: docs/GuiliangJun25_tutorial_output/integrals/MA2b-00003_spotsmasked.chi
MA2b-00003.tif Azm= 0.00
2-Theta Angle (Degrees)
Intensity
       2500
 1.03978   7726.33
 1.0819   7542.99
 1.12402   7383.34
 1.16614   7254.35
 1.20826   7195.94
 1.25038   7147.47
 1.2925   7134.82
 1.33462   7174.53
 1.37674   7226.79
 1.41886   7323.3
 1.46098   7544.54
 1.5031   7744.51
 1.54522   7805.56
 1.58734   7758.51
 1.62946   7724.67
 1.67158   7717.96
 1.7137   7766.91
 1.75582   7794.05
 1.79794   7888.31
 1.84006   8035.16
 1.88218   8217.28
 1.9243   8409.42
 1.96642   8647.72
 2.00854   8859.7
 2.05066   9105.5
 2.09278   9651.42
 2.1349   16036.2
 2.17702   24511.6
 2.21914   15039
 2.26126   11621.2
 2.30338   10526.3
 2.3455   10697.8
 2.38762   10931.2
 2.42974   11258.4
 2.47186   11584.3
 2.51398   11938.1
 2.5561   12222.9
 2.59822   12496.3
 2.64034   12706.8
 2.68246   12811.1
 2.72458   12881.2
 2.7667   12851.7
 2.80882   12758.9
 2.85094   12661.2
 2.89306   12496.3
 2.93518   12331.3
 2.9773   12147.8
 3.01942   11928.3
 3.06154   11662.1
 3.10366   11425.6
 3.14578   11233.5
 3.1879   11082.3
 3.23002   10939.2
 3.27214   10841.4
 3.31426   10786.1
 3.35638   10719.9
 3.3985   10745.3
 3.44062   10770
 3.48274   10770
 3.52486   10749.9
 3.56698   10768.2
 3.6091   10744.3
 3.65122   10635.9
 3.69334   10593.1
 3.73546   10261
 3.77758   9872.92
 3.8197   9610.13
 3.86182   9377.2
 3.90394   9059.42
 3.94606   8794.08
 3.98818   8639.33
 4.0303   8419.89
 4.07242   8208.98
 4.11454   8166.41
 4.15666   8018.73
 4.19878   7830.78
 4.2409   7905.55
 4.28302   8508.55
 4.32514   8907.65
 4.36726   8824.85
 4.40938   8107.52
 4.4515   7688.98
 4.49362   7524.85
 4.53574   7112.61
 4.57786   6924.99
 4.61998   6773.14
 4.6621   6663.21
 4.70422   6635.81
 4.74634   7093.72
 4.78846   8324.43
 4.83058   9141.91
 4.8727   7337.05
 4.91482   7864.08
 4.95694   8519.97
 4.99906   8643.35
 5.04118   6989.95
 5.0833   6876.42
 5.12542   20891.6
 5.16754   19261.3
 5.20966   6437.8
 5.25178   5985.59
 5.2939   5897.22
 5.33602   5837.27
 5.37814   5841.29
 5.42026   5918.82
 5.46238   6134.19
 5.5045   7169.2
 5.54662   11910.5
 5.58874   12042.7
 5.63086   8402.98
 5.67298   6734.65
 5.7151   6122.95
 5.75722   6061.22
 5.79934   5981.87
 5.84146   5981.79
 5.88358   6305.21
 5.9257   10038.4
 5.96782   9256.36
 6.00994   7299.08
 6.05206   6373.78
 6.09418   5957.91
 6.1363   5878.58
 6.17842   5874.47
 6.22054   5849.99
 6.26266   5876.35
 6.30478   5927.55
 6.3469   5941.37
 6.38902   5952.97
 6.43114   6013.32
 6.47326   5999.64
 6.51538   6075.49
 6.5575   6151.91
 6.59962   6177.51
 6.64174   6262.42
 6.68386   6428.77
 6.72598   6480.5
 6.7681   6613.77
 6.81022   6744.73
 6.85234   6924.45
 6.89446   7309.04
 6.93658   8033.65
 6.9787   8149.17
 7.02082   7996.06
 7.06294   7664.26
 7.10506   6980.77
 7.14718   6755.41
 7.1893   6676.83
 7.23142   6636.31
 7.27354   6678.99
 7.31566   6683.63
 7.35778   6846.51
 7.3999   6947.17
 7.44202   7082.82
 7.48414   7266.62
 7.52626   7462.69
 7.56838   7555.29
 7.6105   7240.54
 7.65262   6480.17
 7.69474   6176.82
 7.73686   6043.38
 7.77898   5914.1
 7.8211   5833.87
 7.86322   5754.86
 7.90534   5659.51
 7.94746   5657.12
 7.98958   5602.75
 8.0317   5525.69
 8.07382   5664.54
 8.11594   5951.49
 8.15806   6053.59
 8.20018   6525.67
 8.2423   7234.34
 8.28442   7015.72
 8.32654   6134.57
 8.36866   5771.79
 8.41078   8597.27
 8.4529   6004.08
 8.49502   6271.65
 8.53714   6498.94
 8.57926   6474.65
 8.62138   6060.24
 8.6635   5712.64
 8.70562   5581.01
 8.74774   5510.53
 8.78986   5407.85
 8.83198   5288.16
 8.8741   5094.35
 8.91622   5001.34
 8.95834   4982.35
 9.00046   4978.27
 9.04258   4926.96
 9.0847   4920.53
 9.12682   4953.33
 9.16894   5015.76
 9.21106   5166.97
 9.25318   5426.29
 9.2953   5681.58
 9.33742   5731.77
 9.37954   5584.21
 9.42166   5343.93
 9.46378   5263.92
 9.5059   5289.34
 9.54802   5290.48
 9.59014   5332.54
 9.63226   5328.09
 9.67438   5280.85
 9.7165   5173
 9.75862   5079.84
 9.80074   5236.85
 9.84286   8210.69
 9.88498   8114.71
 9.9271   5546.31
 9.96922   5451.32
 10.0113   5392.4
 10.0535   5269.9
 10.0956   5202.25
 10.1377   5231.9
 10.1798   5290.57
 10.2219   5374.34
 10.2641   5574.75
 10.3062   8362.99
 10.3483   5286.1
 10.3904   5140.57
 10.4325   5167.13
 10.4747   5230.4
 10.5168   5239.85
 10.5589   5191.42
 10.601   5087.82
 10.6431   5043.22
 10.6853   5026.81
 10.7274   5096.7
 10.7695   5125.88
 10.8116   5102.65
 10.8537   5049.89
 10.8959   4977.59
 10.938   4894.23
 10.9801   4837.09
 11.0222   4818.35
 11.0643   4839.37
 11.1065   4957.82
 11.1486   5039.02
 11.1907   4937.96
 11.2328   4861.75
 11.2749   4750.95
 11.3171   4684.58
 11.3592   4610.6
 11.4013   4564.95
 11.4434   4531.37
 11.4855   4514.3
 11.5277   4481.1
 11.5698   4425.94
 11.6119   4416.46
 11.654   4389.42
 11.6961   4354.97
 11.7383   4355.46
 11.7804   4350.19
 11.8225   4377.01
 11.8646   4444.23
 11.9067   5028.47
 11.9489   4518.23
 11.991   4554.51
 12.0331   4520.09
 12.0752   4474.76
 12.1173   4424.95
 12.1595   4284.34
 12.2016   4179.69
 12.2437   4137.46
 12.2858   4100.17
 12.3279   4102.65
 12.3701   4134.5
 12.4122   4149.53
 12.4543   4171.67
 12.4964   4184.16
 12.5385   4172.31
 12.5807   4184.99
 12.6228   4232.51
 12.6649   4266.4
 12.6977   4240.17