File: docs/GuiliangJun25_tutorial_output/integrals/MA2b-00007_arcsmasked.chi
MA2b-00007.tif Azm= 0.00
2-Theta Angle (Degrees)
Intensity
       2500
 1.03978   7792.69
 1.0819   7596.63
 1.12402   7418.64
 1.16614   7306.25
 1.20826   7251.32
 1.25038   7167.88
 1.2925   7150.96
 1.33462   7226.01
 1.37674   7295.84
 1.41886   7400.86
 1.46098   7594.1
 1.5031   7796.65
 1.54522   7827.05
 1.58734   7762.16
 1.62946   7744.39
 1.67158   7775.59
 1.7137   7767.14
 1.75582   7836.84
 1.79794   7943.57
 1.84006   8073.09
 1.88218   8251.47
 1.9243   8486.22
 1.96642   8709.07
 2.00854   8932.95
 2.05066   9233.59
 2.09278   10248.3
 2.1349   26322
 2.17702   20841.8
 2.21914   12026.8
 2.26126   10820.2
 2.30338   10515.9
 2.3455   10725.3
 2.38762   10981.9
 2.42974   11320.5
 2.47186   11650.4
 2.51398   11959.4
 2.5561   12261.9
 2.59822   12566.4
 2.64034   12731.7
 2.68246   12903.9
 2.72458   12948.5
 2.7667   12933.9
 2.80882   12853.5
 2.85094   12706.4
 2.89306   12550.1
 2.93518   12399.1
 2.9773   12194.8
 3.01942   11978.6
 3.06154   11698
 3.10366   11484.6
 3.14578   11309.2
 3.1879   11187
 3.23002   11018.5
 3.27214   10942.3
 3.31426   10909.8
 3.35638   10871
 3.3985   10869.5
 3.44062   10925.4
 3.48274   10911.5
 3.52486   10940.9
 3.56698   11048.5
 3.6091   11064.1
 3.65122   11102.7
 3.69334   11471.2
 3.73546   11618.6
 3.77758   11908.5
 3.8197   13196
 3.86182   14232.5
 3.90394   19138.9
 3.94606   77214.5
 3.98818   59304
 4.0303   19359.4
 4.07242   13379
 4.11454   11782.3
 4.15666   10367.5
 4.19878   9855.69
 4.2409   9446.28
 4.28302   10511
 4.32514   9620.47
 4.36726   8445.23
 4.40938   7872.06
 4.4515   7583.9
 4.49362   7396.8
 4.53574   7132.29
 4.57786   6956.46
 4.61998   6805.6
 4.6621   6711.49
 4.70422   6639
 4.74634   6780.08
 4.78846   7310.56
 4.83058   9389.35
 4.8727   8226.47
 4.91482   7353.33
 4.95694   8559.9
 4.99906   10948.4
 5.04118   8116.42
 5.0833   7156.41
 5.12542   8952.59
 5.16754   8749.15
 5.20966   6384.94
 5.25178   6068.37
 5.2939   5938.73
 5.33602   5884.76
 5.37814   5884.63
 5.42026   5871.07
 5.46238   5928.04
 5.5045   6305.88
 5.54662   7863.8
 5.58874   8557.51
 5.63086   7060.05
 5.67298   6304.08
 5.7151   6070.16
 5.75722   6174.7
 5.79934   6161.56
 5.84146   6257.38
 5.88358   6837.55
 5.9257   9189.68
 5.96782   11098.8
 6.00994   9307.67
 6.05206   7026.2
 6.09418   6204.83
 6.1363   6006.64
 6.17842   5965.78
 6.22054   5914.81
 6.26266   5940.69
 6.30478   5987.6
 6.3469   6011.6
 6.38902   6050.58
 6.43114   6165.06
 6.47326   6268.97
 6.51538   6362.98
 6.5575   6454.57
 6.59962   6638.22
 6.64174   6893.4
 6.68386   7117.91
 6.72598   7277.08
 6.7681   7715.35
 6.81022   8318.97
 6.85234   14481.9
 6.89446   23562.6
 6.93658   10295.9
 6.9787   9400.3
 7.02082   8367.28
 7.06294   7996.32
 7.10506   7415.4
 7.14718   7169.17
 7.1893   7006.96
 7.23142   6904.79
 7.27354   6944.84
 7.31566   6881.13
 7.35778   6936.58
 7.3999   7077.12
 7.44202   7446.49
 7.48414   7513.29
 7.52626   7131.35
 7.56838   6874.92
 7.6105   6722.06
 7.65262   6487.75
 7.69474   6384.43
 7.73686   6345.2
 7.77898   6388.17
 7.8211   6480.75
 7.86322   6512.05
 7.90534   6928.02
 7.94746   25590.5
 7.98958   6987.56
 8.0317   6249.94
 8.07382   6144.33
 8.11594   6193.31
 8.15806   6140.01
 8.20018   6195.28
 8.2423   6787.52
 8.28442   7867.23
 8.32654   7484.88
 8.36866   6303.57
 8.41078   9755.88
 8.4529   5868.9
 8.49502   5971.14
 8.53714   6694.21
 8.57926   7601.69
 8.62138   7045.32
 8.6635   6109.48
 8.70562   5602.79
 8.74774   5391.2
 8.78986   5299
 8.83198   5331.56
 8.8741   6752.31
 8.91622   5122.81
 8.95834   5062.01
 9.00046   5046.29
 9.04258   5011.18
 9.0847   4987.09
 9.12682   5029.49
 9.16894   5123.72
 9.21106   5247.57
 9.25318   5350.68
 9.2953   5519.13
 9.33742   5716.93
 9.37954   5585.4
 9.42166   5265.69
 9.46378   5117.67
 9.5059   5128.34
 9.54802   5158.5
 9.59014   5309.85
 9.63226   5443.07
 9.67438   5591.93
 9.7165   7094.03
 9.75862   5346.84
 9.80074   5259.64
 9.84286   7766.19
 9.88498   7559.04
 9.9271   5351.23
 9.96922   5337.2
 10.0113   5356.44
 10.0535   5258.69
 10.0956   5230.55
 10.1377   5252.38
 10.1798   5398.78
 10.2219   5698.98
 10.2641   5944.46
 10.3062   6179.74
 10.3483   5418.14
 10.3904   5340.53
 10.4325   5441.66
 10.4747   5782.19
 10.5168   6227.17
 10.5589   5382.24
 10.601   5215.32
 10.6431   5112.74
 10.6853   5077.54
 10.7274   5159.64
 10.7695   5191.01
 10.8116   5171.89
 10.8537   5110.27
 10.8959   4990.02
 10.938   4899.95
 10.9801   4836.75
 11.0222   4813.82
 11.0643   4815.46
 11.1065   4867.91
 11.1486   4966.86
 11.1907   4958.52
 11.2328   4931.67
 11.2749   4693.62
 11.3171   4624.97
 11.3592   4569.77
 11.4013   4539.6
 11.4434   4509.05
 11.4855   4490.7
 11.5277   4467.7
 11.5698   4432.57
 11.6119   4435.47
 11.654   4405.04
 11.6961   4390.21
 11.7383   4361.97
 11.7804   4377.89
 11.8225   4397.69
 11.8646   4492.44
 11.9067   4833.69
 11.9489   4689.55
 11.991   4668.02
 12.0331   4548.71
 12.0752   4414.22
 12.1173   4311.39
 12.1595   4230.28
 12.2016   4167.04
 12.2437   4129.98
 12.2858   4110.25
 12.3279   4106.82
 12.3701   4147.3
 12.4122   4161.99
 12.4543   4156.7
 12.4964   4118.66
 12.5385   4091.04
 12.5807   4073.33
 12.6228   4100.51
 12.6649   4170.39
 12.6977   4240.31