File: docs/GuiliangJun25_tutorial_output/integrals/MA2b-00004_spotsmasked.chi
MA2b-00004.tif Azm= 0.00
2-Theta Angle (Degrees)
Intensity
       2500
 1.03978   7727.2
 1.0819   7513.49
 1.12402   7333.44
 1.16614   7237.03
 1.20826   7146.54
 1.25038   7121.17
 1.2925   7098.22
 1.33462   7140.52
 1.37674   7213.53
 1.41886   7339.75
 1.46098   7517.01
 1.5031   7746.5
 1.54522   7748.86
 1.58734   7681.77
 1.62946   7684.74
 1.67158   7698.64
 1.7137   7705.46
 1.75582   7782.98
 1.79794   7840.55
 1.84006   7991.74
 1.88218   8195.59
 1.9243   8378.49
 1.96642   8602.92
 2.00854   8829.13
 2.05066   9101.59
 2.09278   9717.09
 2.1349   18285.3
 2.17702   23762.5
 2.21914   14023
 2.26126   11338.1
 2.30338   10479
 2.3455   10624.4
 2.38762   10903
 2.42974   11215.6
 2.47186   11543
 2.51398   11888.1
 2.5561   12174.3
 2.59822   12463.1
 2.64034   12658
 2.68246   12772.4
 2.72458   12838.2
 2.7667   12788.3
 2.80882   12723.5
 2.85094   12600.8
 2.89306   12454.7
 2.93518   12278.6
 2.9773   12080.8
 3.01942   11865.1
 3.06154   11605.6
 3.10366   11382.1
 3.14578   11207.9
 3.1879   11084.4
 3.23002   10888.2
 3.27214   10806.6
 3.31426   10779.9
 3.35638   10695.1
 3.3985   10697.7
 3.44062   10730.2
 3.48274   10710.4
 3.52486   10697.5
 3.56698   10737.5
 3.6091   10708.4
 3.65122   10616.8
 3.69334   10561
 3.73546   10256.2
 3.77758   9799.93
 3.8197   9578.06
 3.86182   9357.06
 3.90394   9077.94
 3.94606   8781.49
 3.98818   8616.27
 4.0303   8408.58
 4.07242   8192.66
 4.11454   8122.88
 4.15666   7977.88
 4.19878   7818.95
 4.2409   7901.38
 4.28302   8780.49
 4.32514   9003.62
 4.36726   8634.92
 4.40938   7915.39
 4.4515   7610.19
 4.49362   7441.76
 4.53574   7091.58
 4.57786   6885.09
 4.61998   6745.12
 4.6621   6650.33
 4.70422   6608.13
 4.74634   6954.29
 4.78846   8004.32
 4.83058   9254.56
 4.8727   7526.89
 4.91482   7666.85
 4.95694   8543.46
 4.99906   9219.08
 5.04118   7243.45
 5.0833   6927.4
 5.12542   20834.4
 5.16754   19190
 5.20966   6410.31
 5.25178   5967.13
 5.2939   5869.29
 5.33602   5819.97
 5.37814   5802.67
 5.42026   5867.35
 5.46238   6055.37
 5.5045   6882.56
 5.54662   10575.8
 5.58874   10946.8
 5.63086   7980.66
 5.67298   6612.41
 5.7151   6094.82
 5.75722   6065.53
 5.79934   6010.23
 5.84146   6048.65
 5.88358   6464.73
 5.9257   10420.3
 5.96782   9944.03
 6.00994   7787.32
 6.05206   6518.27
 6.09418   6002.66
 6.1363   5893.71
 6.17842   5869.2
 6.22054   5857.23
 6.26266   5882.07
 6.30478   5921.21
 6.3469   5920.18
 6.38902   5945.09
 6.43114   5988.29
 6.47326   5998.55
 6.51538   6051.81
 6.5575   6134.28
 6.59962   6150.19
 6.64174   6268.93
 6.68386   6419.21
 6.72598   6483.28
 6.7681   6601.72
 6.81022   6734.64
 6.85234   6891.67
 6.89446   7363.33
 6.93658   8123.41
 6.9787   8102.9
 7.02082   7856.54
 7.06294   7578.45
 7.10506   6960.58
 7.14718   6737.37
 7.1893   6659.16
 7.23142   6620.1
 7.27354   6667.07
 7.31566   6672.57
 7.35778   6819.71
 7.3999   6959.61
 7.44202   7144.04
 7.48414   7285.47
 7.52626   7332.08
 7.56838   7303.46
 7.6105   7013.54
 7.65262   6420.91
 7.69474   6146.45
 7.73686   6019.59
 7.77898   5895.43
 7.8211   5818.44
 7.86322   5750.17
 7.90534   5653.41
 7.94746   5623.91
 7.98958   5556.35
 8.0317   5511.15
 8.07382   5598.12
 8.11594   5820.36
 8.15806   5897.75
 8.20018   6308.19
 8.2423   7052.73
 8.28442   7245.71
 8.32654   6393.43
 8.36866   5828.04
 8.41078   8545.67
 8.4529   5903.23
 8.49502   6148.28
 8.53714   6546.6
 8.57926   6716.06
 8.62138   6267.19
 8.6635   5784.09
 8.70562   5549.96
 8.74774   5429
 8.78986   5326.04
 8.83198   5225.96
 8.8741   5046.42
 8.91622   4988.09
 8.95834   4950.25
 9.00046   4954.67
 9.04258   4926.29
 9.0847   4894.96
 9.12682   4940.45
 9.16894   5018.89
 9.21106   5160.63
 9.25318   5372.16
 9.2953   5606.91
 9.33742   5716.89
 9.37954   5549.87
 9.42166   5287.57
 9.46378   5185.53
 9.5059   5217.84
 9.54802   5228.75
 9.59014   5312.65
 9.63226   5329.01
 9.67438   5321.7
 9.7165   5226.06
 9.75862   5099.65
 9.80074   5201.86
 9.84286   8107.49
 9.88498   7993.67
 9.9271   5466.01
 9.96922   5394.9
 10.0113   5356.74
 10.0535   5236.08
 10.0956   5189.99
 10.1377   5209.32
 10.1798   5305.36
 10.2219   5447.89
 10.2641   5638.18
 10.3062   8376.1
 10.3483   5287.88
 10.3904   5153.09
 10.4325   5186.1
 10.4747   5283.74
 10.5168   5295.33
 10.5589   5204.07
 10.601   5093.58
 10.6431   5024.34
 10.6853   5023.47
 10.7274   5071.42
 10.7695   5116.61
 10.8116   5096.73
 10.8537   5049.01
 10.8959   4959
 10.938   4875.12
 10.9801   4809.75
 11.0222   4780.34
 11.0643   4811.39
 11.1065   4904.81
 11.1486   4981.69
 11.1907   4919.56
 11.2328   4833.49
 11.2749   4715.27
 11.3171   4654.57
 11.3592   4570.38
 11.4013   4530.35
 11.4434   4506.28
 11.4855   4482.48
 11.5277   4451.76
 11.5698   4409.46
 11.6119   4396.68
 11.654   4382.17
 11.6961   4356.6
 11.7383   4337.22
 11.7804   4339.54
 11.8225   4357.53
 11.8646   4444.93
 11.9067   5043.27
 11.9489   4539.62
 11.991   4556.18
 12.0331   4511.3
 12.0752   4433.03
 12.1173   4361.45
 12.1595   4250.73
 12.2016   4149.92
 12.2437   4106.03
 12.2858   4086.35
 12.3279   4083.48
 12.3701   4108.36
 12.4122   4128
 12.4543   4141.14
 12.4964   4145.92
 12.5385   4113.54
 12.5807   4137.52
 12.6228   4176.91
 12.6649   4214.19
 12.6977   4230.36