File: docs/GuiliangJun25_tutorial_output/integrals/MA2b-00001_arcsmasked.chi
MA2b-00001.tif Azm= 0.00
2-Theta Angle (Degrees)
Intensity
       2500
 1.03978   7636.89
 1.0819   7432.07
 1.12402   7275.57
 1.16614   7156.25
 1.20826   7085.51
 1.25038   7033.53
 1.2925   7041.63
 1.33462   7103.4
 1.37674   7136.91
 1.41886   7270.9
 1.46098   7488.01
 1.5031   7680.62
 1.54522   7681.42
 1.58734   7645.99
 1.62946   7640.23
 1.67158   7672.89
 1.7137   7668.78
 1.75582   7692.17
 1.79794   7794.26
 1.84006   7925.05
 1.88218   8123.02
 1.9243   8327.95
 1.96642   8526.62
 2.00854   8753.52
 2.05066   8974.23
 2.09278   9395.66
 2.1349   12488.6
 2.17702   23916.8
 2.21914   16858.7
 2.26126   12221.6
 2.30338   10482
 2.3455   10575.5
 2.38762   10819.2
 2.42974   11153.2
 2.47186   11464.4
 2.51398   11792.4
 2.5561   12094.1
 2.59822   12379.8
 2.64034   12578.2
 2.68246   12708.1
 2.72458   12808.6
 2.7667   12755.8
 2.80882   12654.7
 2.85094   12544.4
 2.89306   12382.8
 2.93518   12212.1
 2.9773   12020
 3.01942   11792.4
 3.06154   11549
 3.10366   11293.2
 3.14578   11128.9
 3.1879   11003.4
 3.23002   10838.3
 3.27214   10760.5
 3.31426   10708.1
 3.35638   10624.5
 3.3985   10635.8
 3.44062   10680.1
 3.48274   10686.8
 3.52486   10696.5
 3.56698   10771.3
 3.6091   10803
 3.65122   10816.8
 3.69334   11144.6
 3.73546   11315.9
 3.77758   11569.8
 3.8197   12635.9
 3.86182   13667.3
 3.90394   17597
 3.94606   73320.1
 3.98818   52953
 4.0303   17454.8
 4.07242   12755.2
 4.11454   11347.8
 4.15666   10037.6
 4.19878   9509.18
 4.2409   9023.95
 4.28302   8651.25
 4.32514   8924.07
 4.36726   9086.33
 4.40938   8298.51
 4.4515   7785.05
 4.49362   7581.94
 4.53574   7062.72
 4.57786   6845.24
 4.61998   6670.29
 4.6621   6596.16
 4.70422   6607.02
 4.74634   7275.04
 4.78846   8729
 4.83058   8568.99
 4.8727   6914.14
 4.91482   8118.33
 4.95694   8400.14
 4.99906   7666.89
 5.04118   6506.09
 5.0833   6624.41
 5.12542   8539.28
 5.16754   8500.93
 5.20966   6190.76
 5.25178   5916.37
 5.2939   5806.49
 5.33602   5762.55
 5.37814   5820.53
 5.42026   5868.6
 5.46238   6127.19
 5.5045   7456.04
 5.54662   14091.7
 5.58874   13777.5
 5.63086   8769.97
 5.67298   6691.94
 5.7151   5978.12
 5.75722   5926.99
 5.79934   5811.71
 5.84146   5758.74
 5.88358   5990.47
 5.9257   7008.82
 5.96782   7096.31
 6.00994   6509.39
 6.05206   6042.16
 6.09418   5786.38
 6.1363   5750.74
 6.17842   5759.45
 6.22054   5755.44
 6.26266   5772.77
 6.30478   5825.32
 6.3469   5861.18
 6.38902   5913.05
 6.43114   5977.98
 6.47326   6079.91
 6.51538   6207.88
 6.5575   6321.39
 6.59962   6502.23
 6.64174   6722.26
 6.68386   6950.09
 6.72598   7102.5
 6.7681   7512.24
 6.81022   8104.21
 6.85234   13433.5
 6.89446   19536
 6.93658   9382.81
 6.9787   9189.83
 7.02082   8857.92
 7.06294   8133.19
 7.10506   7279.7
 7.14718   6989.76
 7.1893   6806.31
 7.23142   6721.6
 7.27354   6765.32
 7.31566   6700.33
 7.35778   6793.14
 7.3999   6818.12
 7.44202   6869.13
 7.48414   7059
 7.52626   7510.82
 7.56838   7889.85
 7.6105   7631.52
 7.65262   6645.96
 7.69474   6350.78
 7.73686   6272.28
 7.77898   6315.88
 7.8211   6376.59
 7.86322   6409.16
 7.90534   6699.39
 7.94746   24426.5
 7.98958   6711.63
 8.0317   6140.21
 8.07382   6246.87
 8.11594   6672.16
 8.15806   6700.79
 8.20018   7139.24
 8.2423   7546.6
 8.28442   6652.9
 8.32654   5835.39
 8.36866   5796.28
 8.41078   9750.01
 8.4529   6208.61
 8.49502   6378.81
 8.53714   6298.94
 8.57926   5995.88
 8.62138   5639.26
 8.6635   5513.96
 8.70562   5549.23
 8.74774   5569.28
 8.78986   5543.16
 8.83198   5529.12
 8.8741   6804.45
 8.91622   5062.36
 8.95834   4994.43
 9.00046   4998.02
 9.04258   4920.46
 9.0847   4879.24
 9.12682   4901.13
 9.16894   4975.32
 9.21106   5097.47
 9.25318   5423.33
 9.2953   5709.86
 9.33742   5687.24
 9.37954   5533.4
 9.42166   5344.17
 9.46378   5298.43
 9.5059   5341.55
 9.54802   5292.78
 9.59014   5302.03
 9.63226   5248.07
 9.67438   5175.61
 9.7165   6229.75
 9.75862   5120.53
 9.80074   5272.26
 9.84286   7984.97
 9.88498   7938.14
 9.9271   5570.23
 9.96922   5418.7
 10.0113   5327.64
 10.0535   5188.77
 10.0956   5132.14
 10.1377   5156.66
 10.1798   5188.27
 10.2219   5189.41
 10.2641   5348.02
 10.3062   5851.59
 10.3483   5222.64
 10.3904   5123.87
 10.4325   5126.4
 10.4747   5740.72
 10.5168   5820.8
 10.5589   5159.06
 10.601   5091.23
 10.6431   5030.56
 10.6853   4994.57
 10.7274   5053.77
 10.7695   5054.94
 10.8116   5017.51
 10.8537   4969.16
 10.8959   4909.35
 10.938   4819.09
 10.9801   4759.04
 11.0222   4759.82
 11.0643   4801.01
 11.1065   4947.66
 11.1486   5017.07
 11.1907   4880.33
 11.2328   4871.57
 11.2749   4724.85
 11.3171   4667.77
 11.3592   4586.12
 11.4013   4527.19
 11.4434   4494.02
 11.4855   4483.38
 11.5277   4439.24
 11.5698   4363.78
 11.6119   4361.69
 11.654   4330.45
 11.6961   4301.52
 11.7383   4289.82
 11.7804   4302.16
 11.8225   4317.06
 11.8646   4377.23
 11.9067   4619.69
 11.9489   4421.7
 11.991   4459.84
 12.0331   4472.51
 12.0752   4476.15
 12.1173   4460.17
 12.1595   4290.32
 12.2016   4144.84
 12.2437   4082.27
 12.2858   4060.67
 12.3279   4054.44
 12.3701   4088.25
 12.4122   4104.27
 12.4543   4159.71
 12.4964   4184.34
 12.5385   4171.76
 12.5807   4196.07
 12.6228   4233.43
 12.6649   4210.73
 12.6977   4161.2