File: docs/GuiliangJun25_tutorial_output/integrals/MA2b-00002_base.chi
MA2b-00002.tif Azm= 0.00
2-Theta Angle (Degrees)
Intensity
       2500
 1.03978   7722.66
 1.0819   7516.48
 1.12402   7318.78
 1.16614   7218.58
 1.20826   7179.83
 1.25038   7086.71
 1.2925   7100.36
 1.33462   7166.89
 1.37674   7172.55
 1.41886   7299.37
 1.46098   7516.67
 1.5031   7719.52
 1.54522   7728.71
 1.58734   7697.78
 1.62946   7708.1
 1.67158   7694.88
 1.7137   7695.13
 1.75582   7719.52
 1.79794   7841.13
 1.84006   7990.98
 1.88218   8138.42
 1.9243   8379.86
 1.96642   8582.57
 2.00854   8781.94
 2.05066   9023.56
 2.09278   9513.48
 2.1349   13995.5
 2.17702   24541.9
 2.21914   15935.3
 2.26126   11898.5
 2.30338   10501.7
 2.3455   10646.2
 2.38762   10904.8
 2.42974   11223.4
 2.47186   11546.9
 2.51398   11862.4
 2.5561   12181.1
 2.59822   12457.4
 2.64034   12631.5
 2.68246   12767.3
 2.72458   12888.8
 2.7667   12833.3
 2.80882   12723.5
 2.85094   12600.1
 2.89306   12474.1
 2.93518   12292.4
 2.9773   12098
 3.01942   11869.1
 3.06154   11629
 3.10366   11379.1
 3.14578   11207.2
 3.1879   11059.5
 3.23002   10916.5
 3.27214   10812.1
 3.31426   10774.1
 3.35638   10690.7
 3.3985   10727.3
 3.44062   10736.7
 3.48274   10775.7
 3.52486   10740.8
 3.56698   10854.5
 3.6091   10864.8
 3.65122   10892.6
 3.69334   11211.8
 3.73546   11377.8
 3.77758   11621.5
 3.8197   12693.7
 3.86182   13717.9
 3.90394   17690.6
 3.94606   72832.9
 3.98818   54155.6
 4.0303   17593.7
 4.07242   12810.3
 4.11454   11415
 4.15666   10091.3
 4.19878   9582.76
 4.2409   9090.33
 4.28302   8867.61
 4.32514   9165.61
 4.36726   9094.46
 4.40938   8236.51
 4.4515   7752.79
 4.49362   7570.4
 4.53574   7102.05
 4.57786   6870.37
 4.61998   6728.63
 4.6621   6648.44
 4.70422   6610.17
 4.74634   7176.51
 4.78846   8555.09
 4.83058   8888.42
 4.8727   7115.41
 4.91482   7982.92
 4.95694   8461.2
 4.99906   8086.71
 5.04118   6714.04
 5.0833   6761.43
 5.12542   20590.6
 5.16754   19095.9
 5.20966   6382.25
 5.25178   5966.08
 5.2939   5861.61
 5.33602   5812.44
 5.37814   5863.33
 5.42026   5913.06
 5.46238   6141.15
 5.5045   7373.61
 5.54662   13059.3
 5.58874   13039.8
 5.63086   8698.2
 5.67298   6774.38
 5.7151   6090.8
 5.75722   6008.49
 5.79934   5912.3
 5.84146   5876.19
 5.88358   6145.51
 5.9257   9642.37
 5.96782   8590.42
 6.00994   6855.85
 6.05206   6202.37
 6.09418   5865.4
 6.1363   5804.99
 6.17842   5818.31
 6.22054   5784.88
 6.26266   5831.06
 6.30478   5875.18
 6.3469   5910.81
 6.38902   5943.84
 6.43114   6028.61
 6.47326   6142.37
 6.51538   6262.89
 6.5575   6363.86
 6.59962   6557.32
 6.64174   6788.1
 6.68386   7009.19
 6.72598   7153.63
 6.7681   7588.77
 6.81022   8195.14
 6.85234   14278.6
 6.89446   21697.7
 6.93658   9602.45
 6.9787   9278.65
 7.02082   8799.34
 7.06294   8163.71
 7.10506   7344.09
 7.14718   7064.9
 7.1893   6889.14
 7.23142   6798.76
 7.27354   6836.11
 7.31566   6774.63
 7.35778   6848.91
 7.3999   6910.13
 7.44202   6989.92
 7.48414   7166.65
 7.52626   7499.52
 7.56838   7738.74
 7.6105   7460.41
 7.65262   6647.81
 7.69474   6373.72
 7.73686   6307.7
 7.77898   6349.17
 7.8211   6420.43
 7.86322   6443.06
 7.90534   6779.94
 7.94746   25264.1
 7.98958   6819.42
 8.0317   6182.48
 8.07382   6231.01
 8.11594   6567.42
 8.15806   6597.75
 8.20018   7015.27
 8.2423   7591.45
 8.28442   6942.02
 8.32654   6036.08
 8.36866   5862.79
 8.41078   10747.9
 8.4529   6181.36
 8.49502   6372.94
 8.53714   6439.93
 8.57926   6228.19
 8.62138   5851.96
 8.6635   5646.16
 8.70562   5595.76
 8.74774   5574.76
 8.78986   5520.87
 8.83198   5512.52
 8.8741   6904.59
 8.91622   5101.99
 8.95834   5027.65
 9.00046   5024.22
 9.04258   4955.93
 9.0847   4922.57
 9.12682   4949.82
 9.16894   5008.64
 9.21106   5152.12
 9.25318   5433.37
 9.2953   5702.19
 9.33742   5713.52
 9.37954   5558.08
 9.42166   5347.46
 9.46378   5279.52
 9.5059   5324.55
 9.54802   5294.05
 9.59014   5331.47
 9.63226   5308.84
 9.67438   5273.56
 9.7165   6328.61
 9.75862   5159.27
 9.80074   5273.83
 9.84286   8475.82
 9.88498   8532.7
 9.9271   5567.62
 9.96922   5439.05
 10.0113   5372.71
 10.0535   5235
 10.0956   5178.01
 10.1377   5192.56
 10.1798   5235.38
 10.2219   5274.19
 10.2641   5464.42
 10.3062   8296.18
 10.3483   5272.17
 10.3904   5179.91
 10.4325   5176.22
 10.4747   5581.77
 10.5168   6066.39
 10.5589   5223.1
 10.601   5131.62
 10.6431   5071.82
 10.6853   5034.73
 10.7274   5083.94
 10.7695   5099.73
 10.8116   5064.22
 10.8537   5012.54
 10.8959   4939.97
 10.938   4862.34
 10.9801   4797.73
 11.0222   4787.37
 11.0643   4824.4
 11.1065   4950.11
 11.1486   5030.7
 11.1907   4910.37
 11.2328   4909.61
 11.2749   4754.94
 11.3171   4683.61
 11.3592   4602.14
 11.4013   4543.05
 11.4434   4519.05
 11.4855   4491.73
 11.5277   4464.29
 11.5698   4397.43
 11.6119   4384.24
 11.654   4362.43
 11.6961   4334.83
 11.7383   4319.2
 11.7804   4329.96
 11.8225   4354.08
 11.8646   4414.15
 11.9067   5020.86
 11.9489   4480.31
 11.991   4507.63
 12.0331   4493.52
 12.0752   4475.44
 12.1173   4447.17
 12.1595   4287.01
 12.2016   4154.31
 12.2437   4109.32
 12.2858   4091.23
 12.3279   4082.14
 12.3701   4107.08
 12.4122   4130.1
 12.4543   4154.83
 12.4964   4193.08
 12.5385   4173.49
 12.5807   4203.39
 12.6228   4248.64
 12.6649   4244.2
 12.6977   4216.09