File: docs/GuiliangJun25_tutorial_output/integrals/MA2b-00003_arcsmasked.chi
MA2b-00003.tif Azm= 0.00
2-Theta Angle (Degrees)
Intensity
       2500
 1.03978   7726.33
 1.0819   7542.99
 1.12402   7383.34
 1.16614   7254.35
 1.20826   7195.94
 1.25038   7147.47
 1.2925   7134.82
 1.33462   7185.33
 1.37674   7238.44
 1.41886   7336.19
 1.46098   7556.75
 1.5031   7759.56
 1.54522   7818.15
 1.58734   7762.52
 1.62946   7730.42
 1.67158   7733.93
 1.7137   7777.73
 1.75582   7794.05
 1.79794   7903.87
 1.84006   8037.74
 1.88218   8222.69
 1.9243   8420.34
 1.96642   8661.21
 2.00854   8866.78
 2.05066   9114.32
 2.09278   9656.92
 2.1349   16036.2
 2.17702   24511.6
 2.21914   15039
 2.26126   11630.1
 2.30338   10532.5
 2.3455   10703.9
 2.38762   10934.3
 2.42974   11263.6
 2.47186   11589.7
 2.51398   11941.1
 2.5561   12222.9
 2.59822   12502.2
 2.64034   12711.5
 2.68246   12841.7
 2.72458   12933.4
 2.7667   12882.3
 2.80882   12782.7
 2.85094   12689.3
 2.89306   12512.7
 2.93518   12346.8
 2.9773   12167.4
 3.01942   11942.6
 3.06154   11675.7
 3.10366   11435.2
 3.14578   11251.2
 3.1879   11098
 3.23002   10956.8
 3.27214   10859.4
 3.31426   10802.5
 3.35638   10737.8
 3.3985   10778.6
 3.44062   10803.6
 3.48274   10821.9
 3.52486   10820.4
 3.56698   10909.3
 3.6091   10913.5
 3.65122   10965.3
 3.69334   11268.4
 3.73546   11420.6
 3.77758   11640.8
 3.8197   12761
 3.86182   13726
 3.90394   17741.1
 3.94606   72764.1
 3.98818   53519.4
 4.0303   17256.7
 4.07242   12820.4
 4.11454   11438.5
 4.15666   10133
 4.19878   9598.48
 4.2409   9161.43
 4.28302   9121.32
 4.32514   9360.33
 4.36726   9017.87
 4.40938   8167.31
 4.4515   7699.73
 4.49362   7528.39
 4.53574   7115.41
 4.57786   6924.99
 4.61998   6773.14
 4.6621   6665.16
 4.70422   6635.81
 4.74634   7095.59
 4.78846   8324.43
 4.83058   9141.91
 4.8727   7337.05
 4.91482   7864.08
 4.95694   8522.38
 4.99906   8643.35
 5.04118   6989.95
 5.0833   6820.74
 5.12542   8779.24
 5.16754   8594.52
 5.20966   6325.71
 5.25178   6028.77
 5.2939   5921.84
 5.33602   5858.29
 5.37814   5900.55
 5.42026   5946.72
 5.46238   6152.13
 5.5045   7183.38
 5.54662   11910.5
 5.58874   12137.3
 5.63086   8462.73
 5.67298   6755.38
 5.7151   6134.67
 5.75722   6104.31
 5.79934   6004.08
 5.84146   5992.36
 5.88358   6321.4
 5.9257   7771.74
 5.96782   8241.69
 6.00994   7306.84
 6.05206   6394.58
 6.09418   5960.92
 6.1363   5879.89
 6.17842   5874.47
 6.22054   5851.84
 6.26266   5877.77
 6.30478   5929.37
 6.3469   5959.16
 6.38902   5990.95
 6.43114   6086.09
 6.47326   6197.93
 6.51538   6328.6
 6.5575   6426.2
 6.59962   6596.91
 6.64174   6850.76
 6.68386   7070.07
 6.72598   7239.77
 6.7681   7683.43
 6.81022   8361.4
 6.85234   16577.6
 6.89446   24684.7
 6.93658   9898.65
 6.9787   9387
 7.02082   8759.59
 7.06294   8184.11
 7.10506   7420.21
 7.14718   7135.94
 7.1893   6951.64
 7.23142   6848.57
 7.27354   6895.26
 7.31566   6836.25
 7.35778   6900.55
 7.3999   6962.3
 7.44202   7085.73
 7.48414   7266.62
 7.52626   7462.69
 7.56838   7566.69
 7.6105   7298.38
 7.65262   6631.8
 7.69474   6404.89
 7.73686   6346.87
 7.77898   6392.29
 7.8211   6456.68
 7.86322   6473.31
 7.90534   6853.22
 7.94746   26097.4
 7.98958   6926.29
 8.0317   6208.7
 8.07382   6230.68
 8.11594   6490.04
 8.15806   6489.07
 8.20018   6859.79
 8.2423   7525.76
 8.28442   7245.69
 8.32654   6301.92
 8.36866   5953.75
 8.41078   9758.36
 8.4529   6112.31
 8.49502   6334.62
 8.53714   6548.47
 8.57926   6522.12
 8.62138   6097.15
 8.6635   5761.16
 8.70562   5640.75
 8.74774   5577.44
 8.78986   5493.29
 8.83198   5498.22
 8.8741   6829.97
 8.91622   5120.87
 8.95834   5061.24
 9.00046   5037.95
 9.04258   4980.01
 9.0847   4967.23
 9.12682   4992.74
 9.16894   5048.72
 9.21106   5180.56
 9.25318   5433.24
 9.2953   5686.79
 9.33742   5734.38
 9.37954   5585.82
 9.42166   5345.79
 9.46378   5265.73
 9.5059   5295.37
 9.54802   5307.52
 9.59014   5355.95
 9.63226   5363.64
 9.67438   5373.3
 9.7165   6426.09
 9.75862   5201.18
 9.80074   5282.1
 9.84286   7942.57
 9.88498   7918.78
 9.9271   5546.31
 9.96922   5451.96
 10.0113   5392.4
 10.0535   5272.55
 10.0956   5203.51
 10.1377   5233.12
 10.1798   5292.82
 10.2219   5383.88
 10.2641   5560.92
 10.3062   5979.72
 10.3483   5315.36
 10.3904   5223.11
 10.4325   5250.8
 10.4747   5560.31
 10.5168   5984.23
 10.5589   5275.18
 10.601   5167.77
 10.6431   5098.45
 10.6853   5060.32
 10.7274   5118.32
 10.7695   5142.46
 10.8116   5110.07
 10.8537   5053.33
 10.8959   4980.28
 10.938   4895.14
 10.9801   4837.93
 11.0222   4818.67
 11.0643   4838.72
 11.1065   4958.22
 11.1486   5039.37
 11.1907   4938.37
 11.2328   4943.17
 11.2749   4751.68
 11.3171   4688.54
 11.3592   4610.96
 11.4013   4565.87
 11.4434   4531.62
 11.4855   4514.47
 11.5277   4482.3
 11.5698   4426.63
 11.6119   4417.48
 11.654   4389.65
 11.6961   4355.5
 11.7383   4357.42
 11.7804   4354.37
 11.8225   4379.32
 11.8646   4446.06
 11.9067   4721.45
 11.9489   4529.38
 11.991   4561.56
 12.0331   4525.12
 12.0752   4479.39
 12.1173   4429.07
 12.1595   4288.8
 12.2016   4184.15
 12.2437   4139.32
 12.2858   4101.68
 12.3279   4103.72
 12.3701   4136.19
 12.4122   4151.84
 12.4543   4175.98
 12.4964   4185.21
 12.5385   4176.52
 12.5807   4195.11
 12.6228   4235.4
 12.6649   4267.22
 12.6977   4241.31