File: docs/GuiliangJun25_tutorial_output/integrals/MA2b-00004_base.chi
MA2b-00004.tif Azm= 0.00
2-Theta Angle (Degrees)
Intensity
       2500
 1.03978   7727.2
 1.0819   7513.49
 1.12402   7333.44
 1.16614   7237.03
 1.20826   7146.54
 1.25038   7121.17
 1.2925   7098.22
 1.33462   7144.59
 1.37674   7228.03
 1.41886   7355.74
 1.46098   7529.34
 1.5031   7755.87
 1.54522   7759.73
 1.58734   7693.37
 1.62946   7700.06
 1.67158   7713.13
 1.7137   7729.26
 1.75582   7786.77
 1.79794   7855.05
 1.84006   7998.19
 1.88218   8199.91
 1.9243   8390.72
 1.96642   8628.73
 2.00854   8838.99
 2.05066   9106.2
 2.09278   9719.44
 2.1349   18285.3
 2.17702   23762.5
 2.21914   14023
 2.26126   11347.8
 2.30338   10482.1
 2.3455   10629.4
 2.38762   10908.4
 2.42974   11220.7
 2.47186   11547.3
 2.51398   11894.1
 2.5561   12174.3
 2.59822   12472.5
 2.64034   12662.3
 2.68246   12807.7
 2.72458   12896.3
 2.7667   12827.2
 2.80882   12752.3
 2.85094   12633.3
 2.89306   12472.4
 2.93518   12300.7
 2.9773   12106.1
 3.01942   11879.4
 3.06154   11623.4
 3.10366   11396.9
 3.14578   11232.5
 3.1879   11103.9
 3.23002   10908.5
 3.27214   10828
 3.31426   10803.4
 3.35638   10721
 3.3985   10744.4
 3.44062   10793.4
 3.48274   10783.4
 3.52486   10794.9
 3.56698   10918.9
 3.6091   10924.3
 3.65122   10974.6
 3.69334   11291.5
 3.73546   11446.2
 3.77758   11692.8
 3.8197   12893.5
 3.86182   13869.6
 3.90394   18525
 3.94606   75122.9
 3.98818   53659.5
 4.0303   17641.3
 4.07242   12967.6
 4.11454   11498.1
 4.15666   10150.8
 4.19878   9651.71
 4.2409   9186.11
 4.28302   9411.12
 4.32514   9484.28
 4.36726   8839.47
 4.40938   8030.57
 4.4515   7637.87
 4.49362   7447.78
 4.53574   7094.29
 4.57786   6889.68
 4.61998   6745.12
 4.6621   6650.33
 4.70422   6608.13
 4.74634   6955.61
 4.78846   8005.43
 4.83058   9257.64
 4.8727   7526.89
 4.91482   7666.85
 4.95694   8546.69
 4.99906   9219.08
 5.04118   7243.45
 5.0833   6927.4
 5.12542   20800.6
 5.16754   19190
 5.20966   6410.31
 5.25178   6008.19
 5.2939   5896.38
 5.33602   5839.3
 5.37814   5861.82
 5.42026   5893.56
 5.46238   6068.46
 5.5045   6896.1
 5.54662   10582.1
 5.58874   11036.6
 5.63086   8041.24
 5.67298   6635.57
 5.7151   6105.9
 5.75722   6104.53
 5.79934   6034.57
 5.84146   6057.2
 5.88358   6477.84
 5.9257   10423.7
 5.96782   9945.68
 6.00994   7795
 6.05206   6532.47
 6.09418   6002.66
 6.1363   5894.91
 6.17842   5869.2
 6.22054   5857.23
 6.26266   5882.07
 6.30478   5926.88
 6.3469   5941.3
 6.38902   5987.68
 6.43114   6084.79
 6.47326   6197.59
 6.51538   6312.87
 6.5575   6418.24
 6.59962   6593.35
 6.64174   6858.12
 6.68386   7061.08
 6.72598   7243.01
 6.7681   7691.77
 6.81022   8405.51
 6.85234   18164
 6.89446   27680.5
 6.93658   10086
 6.9787   9385.68
 7.02082   8638.73
 7.06294   8115.29
 7.10506   7415.56
 7.14718   7136.96
 7.1893   6940.81
 7.23142   6846.58
 7.27354   6890.63
 7.31566   6821.23
 7.35778   6883.02
 7.3999   6979.34
 7.44202   7146
 7.48414   7285.47
 7.52626   7332.08
 7.56838   7316.91
 7.6105   7083.68
 7.65262   6576.27
 7.69474   6377.43
 7.73686   6328.22
 7.77898   6375.46
 7.8211   6456.41
 7.86322   6477.94
 7.90534   6893.62
 7.94746   26572.4
 7.98958   7218.9
 8.0317   6218.58
 8.07382   6185.55
 8.11594   6369.93
 8.15806   6349.42
 8.20018   6633.73
 8.2423   7354.22
 8.28442   7481.59
 8.32654   6560.87
 8.36866   6002.52
 8.41078   10728.9
 8.4529   6008.06
 8.49502   6205.19
 8.53714   6599.26
 8.57926   6759.31
 8.62138   6309.69
 8.6635   5836.92
 8.70562   5612.09
 8.74774   5498.35
 8.78986   5411.83
 8.83198   5419.31
 8.8741   6640.57
 8.91622   5102.5
 8.95834   5025.81
 9.00046   5020.44
 9.04258   4978.7
 9.0847   4938.68
 9.12682   4977.74
 9.16894   5044.78
 9.21106   5176.82
 9.25318   5378.57
 9.2953   5613.69
 9.33742   5720.69
 9.37954   5552.83
 9.42166   5289.89
 9.46378   5189.2
 9.5059   5222.33
 9.54802   5245.57
 9.59014   5333.78
 9.63226   5363.76
 9.67438   5411.82
 9.7165   6510.52
 9.75862   5211.99
 9.80074   5247.39
 9.84286   8377.81
 9.88498   8384.86
 9.9271   5466.83
 9.96922   5395.32
 10.0113   5357.38
 10.0535   5237.14
 10.0956   5189.99
 10.1377   5209.32
 10.1798   5307.86
 10.2219   5458.33
 10.2641   5638.18
 10.3062   8377.74
 10.3483   5318.81
 10.3904   5234.01
 10.4325   5289.41
 10.4747   5542.59
 10.5168   5907.2
 10.5589   5277.11
 10.601   5161.4
 10.6431   5080.83
 10.6853   5054.63
 10.7274   5089.74
 10.7695   5132.97
 10.8116   5105.65
 10.8537   5052.71
 10.8959   4959.45
 10.938   4876.14
 10.9801   4811.18
 11.0222   4781.68
 11.0643   4811.78
 11.1065   4904.88
 11.1486   4984.34
 11.1907   4919.88
 11.2328   4927.77
 11.2749   4715.64
 11.3171   4657.69
 11.3592   4571.58
 11.4013   4530.65
 11.4434   4506.81
 11.4855   4483.04
 11.5277   4452.73
 11.5698   4409.52
 11.6119   4398.74
 11.654   4382.17
 11.6961   4356.6
 11.7383   4338
 11.7804   4342.19
 11.8225   4362.3
 11.8646   4450.05
 11.9067   5098.78
 11.9489   4553.67
 11.991   4565.61
 12.0331   4518.34
 12.0752   4438.21
 12.1173   4364.87
 12.1595   4255.31
 12.2016   4153.49
 12.2437   4109.05
 12.2858   4089.78
 12.3279   4086.01
 12.3701   4110.15
 12.4122   4130.41
 12.4543   4143.96
 12.4964   4147.77
 12.5385   4122.83
 12.5807   4147.46
 12.6228   4180.24
 12.6649   4215.47
 12.6977   4232.12