File: docs/GuiliangJun25_tutorial_output/integrals/MA2b-00005_spotsmasked.chi
MA2b-00005.tif Azm= 0.00
2-Theta Angle (Degrees)
Intensity
       2500
 1.03978   7794.42
 1.0819   7587.31
 1.12402   7421.64
 1.16614   7307.11
 1.20826   7248.68
 1.25038   7177.5
 1.2925   7169.4
 1.33462   7183.97
 1.37674   7268.03
 1.41886   7367.63
 1.46098   7594.08
 1.5031   7798.4
 1.54522   7826.38
 1.58734   7766.32
 1.62946   7762.52
 1.67158   7760.14
 1.7137   7779.76
 1.75582   7812.36
 1.79794   7931.61
 1.84006   8064.34
 1.88218   8237.12
 1.9243   8439.84
 1.96642   8681.17
 2.00854   8905.04
 2.05066   9176.02
 2.09278   9941.86
 2.1349   21038.7
 2.17702   23051.2
 2.21914   13343.1
 2.26126   11175.4
 2.30338   10558.9
 2.3455   10738.4
 2.38762   10994.7
 2.42974   11301.8
 2.47186   11644.3
 2.51398   12001.3
 2.5561   12304.4
 2.59822   12551.7
 2.64034   12773
 2.68246   12850.2
 2.72458   12945.3
 2.7667   12911.8
 2.80882   12857.9
 2.85094   12686.4
 2.89306   12555.6
 2.93518   12390.3
 2.9773   12197.8
 3.01942   11968.9
 3.06154   11728.3
 3.10366   11503.5
 3.14578   11295.4
 3.1879   11148.4
 3.23002   11012.1
 3.27214   10914.1
 3.31426   10844.5
 3.35638   10785.9
 3.3985   10813.6
 3.44062   10814.2
 3.48274   10801.7
 3.52486   10815.7
 3.56698   10822.7
 3.6091   10794.5
 3.65122   10709.9
 3.69334   10684.8
 3.73546   10375.6
 3.77758   9917.76
 3.8197   9672.69
 3.86182   9439.14
 3.90394   9169.81
 3.94606   8890.64
 3.98818   8700.88
 4.0303   8520.62
 4.07242   8286.54
 4.11454   8219.2
 4.15666   8080.55
 4.19878   7924.74
 4.2409   8031.89
 4.28302   9221.99
 4.32514   9166.58
 4.36726   8493.77
 4.40938   7875.16
 4.4515   7592.23
 4.49362   7453.68
 4.53574   7151.17
 4.57786   6991.48
 4.61998   6831.62
 4.6621   6746.46
 4.70422   6684.56
 4.74634   6945.21
 4.78846   7805.88
 4.83058   9435.07
 4.8727   7826.7
 4.91482   7626.31
 4.95694   8647.24
 4.99906   9905.95
 5.04118   7591.78
 5.0833   7075.22
 5.12542   21221.3
 5.16754   19427.2
 5.20966   6508.55
 5.25178   6036.93
 5.2939   5930.92
 5.33602   5877.46
 5.37814   5857.21
 5.42026   5902.87
 5.46238   6039.74
 5.5045   6656.56
 5.54662   9548.41
 5.58874   10050.8
 5.63086   7652.92
 5.67298   6537.97
 5.7151   6141.26
 5.75722   6153.63
 5.79934   6100.86
 5.84146   6191.86
 5.88358   6678.75
 5.9257   10922.5
 5.96782   10803.9
 6.00994   8380.24
 6.05206   6755.21
 6.09418   6127.71
 6.1363   5985.81
 6.17842   5942.09
 6.22054   5920.33
 6.26266   5949.5
 6.30478   5980.35
 6.3469   5988.92
 6.38902   6006.79
 6.43114   6051.1
 6.47326   6062.74
 6.51538   6126.33
 6.5575   6186.92
 6.59962   6231
 6.64174   6330.75
 6.68386   6486.53
 6.72598   6546.43
 6.7681   6675.42
 6.81022   6819.07
 6.85234   6955.29
 6.89446   7472.39
 6.93658   8291.81
 6.9787   8195.67
 7.02082   7820.41
 7.06294   7604.57
 7.10506   7011.27
 7.14718   6799.8
 7.1893   6726.63
 7.23142   6689.05
 7.27354   6737.77
 7.31566   6748.12
 7.35778   6871.52
 7.3999   7032.99
 7.44202   7286.75
 7.48414   7410.54
 7.52626   7295.11
 7.56838   7179.5
 7.6105   6909.96
 7.65262   6425.4
 7.69474   6182.74
 7.73686   6060.24
 7.77898   5931.24
 7.8211   5859.8
 7.86322   5795.13
 7.90534   5699.64
 7.94746   5685.88
 7.98958   5622.16
 8.0317   5567.43
 8.07382   5615.35
 8.11594   5786.18
 8.15806   5853.84
 8.20018   6169.37
 8.2423   6910.28
 8.28442   7488.33
 8.32654   6746.97
 8.36866   5944.59
 8.41078   8103.97
 8.4529   5880.94
 8.49502   6084.25
 8.53714   6646.66
 8.57926   7026.87
 8.62138   6563.71
 8.6635   5923.76
 8.70562   5590.59
 8.74774   5412.05
 8.78986   5300.2
 8.83198   5211.82
 8.8741   5073.35
 8.91622   5026.55
 8.95834   4986.02
 9.00046   4994.55
 9.04258   4963.32
 9.0847   4950.38
 9.12682   4992.54
 9.16894   5072.51
 9.21106   5206.35
 9.25318   5379.77
 9.2953   5606.28
 9.33742   5736.52
 9.37954   5584.57
 9.42166   5300.26
 9.46378   5176.1
 9.5059   5199.06
 9.54802   5228.04
 9.59014   5318.7
 9.63226   5388.72
 9.67438   5444.48
 9.7165   5376.13
 9.75862   5155.36
 9.80074   5225.24
 9.84286   8223.11
 9.88498   8148.37
 9.9271   5457.27
 9.96922   5392.95
 10.0113   5375.45
 10.0535   5278.48
 10.0956   5240.66
 10.1377   5253.66
 10.1798   5366.78
 10.2219   5576.45
 10.2641   5777.31
 10.3062   8475.31
 10.3483   5356.89
 10.3904   5210.75
 10.4325   5262.3
 10.4747   5388.63
 10.5168   5391.91
 10.5589   5276.17
 10.601   5140.37
 10.6431   5068.93
 10.6853   5044.25
 10.7274   5127.33
 10.7695   5167.71
 10.8116   5153.09
 10.8537   5094.59
 10.8959   5000.03
 10.938   4905.93
 10.9801   4843.8
 11.0222   4827.33
 11.0643   4838.36
 11.1065   4920.47
 11.1486   5003.03
 11.1907   4958.21
 11.2328   4875.49
 11.2749   4729.87
 11.3171   4664.71
 11.3592   4589.71
 11.4013   4559.07
 11.4434   4527.94
 11.4855   4504.92
 11.5277   4480.05
 11.5698   4437.79
 11.6119   4438.02
 11.654   4407.21
 11.6961   4378.73
 11.7383   4363.14
 11.7804   4375.59
 11.8225   4389.67
 11.8646   4483.29
 11.9067   5099.94
 11.9489   4620.23
 11.991   4628.93
 12.0331   4551.73
 12.0752   4445.97
 12.1173   4374.73
 12.1595   4260.01
 12.2016   4184.84
 12.2437   4138.46
 12.2858   4116.43
 12.3279   4105.67
 12.3701   4146.94
 12.4122   4158.09
 12.4543   4169.12
 12.4964   4153.03
 12.5385   4124.95
 12.5807   4130.73
 12.6228   4175.68
 12.6649   4226.7
 12.6977   4268.49