File: docs/GuiliangJun25_tutorial_output/integrals/MA2b-00004_om.chi
MA2b-00004.tif Azm= 0.00
2-Theta Angle (Degrees)
Intensity
       2500
 1.03978   7727.2
 1.0819   7513.49
 1.12402   7344.09
 1.16614   7231.78
 1.20826   7146.54
 1.25038   7121.17
 1.2925   7093.9
 1.33462   7140.52
 1.37674   7213.53
 1.41886   7336.02
 1.46098   7516.72
 1.5031   7747.64
 1.54522   7748.86
 1.58734   7685.18
 1.62946   7684.74
 1.67158   7698.64
 1.7137   7705.46
 1.75582   7782.98
 1.79794   7840.55
 1.84006   7991.74
 1.88218   8195.59
 1.9243   8376.22
 1.96642   8602.92
 2.00854   8833.39
 2.05066   9097.35
 2.09278   9717.09
 2.1349   18285.3
 2.17702   23762.5
 2.21914   14023
 2.26126   11338.1
 2.30338   10482.6
 2.3455   10624.4
 2.38762   10902.7
 2.42974   11215.6
 2.47186   11543
 2.51398   11890.1
 2.5561   12169.3
 2.59822   12463.1
 2.64034   12655.3
 2.68246   12770.5
 2.72458   12838.2
 2.7667   12790.5
 2.80882   12725.5
 2.85094   12600.8
 2.89306   12454.7
 2.93518   12284.6
 2.9773   12080.8
 3.01942   11863.5
 3.06154   11605.6
 3.10366   11383.6
 3.14578   11206.3
 3.1879   11082.8
 3.23002   10890
 3.27214   10806.6
 3.31426   10778.1
 3.35638   10695.1
 3.3985   10697.7
 3.44062   10728.1
 3.48274   10710.4
 3.52486   10697.5
 3.56698   10737.5
 3.6091   10708.4
 3.65122   10616.8
 3.69334   10561
 3.73546   10256.2
 3.77758   9792.5
 3.8197   9578.06
 3.86182   9357.06
 3.90394   9077.94
 3.94606   8781.49
 3.98818   8616.27
 4.0303   8408.58
 4.07242   8192.66
 4.11454   8122.88
 4.15666   7977.88
 4.19878   7818.95
 4.2409   7901.38
 4.28302   8760.65
 4.32514   9003.62
 4.36726   8634.92
 4.40938   7915.39
 4.4515   7610.19
 4.49362   7441.76
 4.53574   7091.58
 4.57786   6885.09
 4.61998   6745.12
 4.6621   6650.33
 4.70422   6608.13
 4.74634   6954.29
 4.78846   8004.32
 4.83058   9251.35
 4.8727   7528.29
 4.91482   7666.85
 4.95694   8543.46
 4.99906   9216.3
 5.04118   7243.45
 5.0833   6879.94
 5.12542   8647.36
 5.16754   8621.13
 5.20966   6279.42
 5.25178   5963.22
 5.2939   5869.29
 5.33602   5819.97
 5.37814   5803.62
 5.42026   5865.54
 5.46238   6055.37
 5.5045   6882.56
 5.54662   10575.8
 5.58874   10946.8
 5.63086   7977.83
 5.67298   6613.38
 5.7151   6094
 5.75722   6066.44
 5.79934   6008.9
 5.84146   6048.5
 5.88358   6463.79
 5.9257   8020.23
 5.96782   8922.21
 6.00994   7782.23
 6.05206   6516.51
 6.09418   6002.66
 6.1363   5893.71
 6.17842   5869.2
 6.22054   5857.23
 6.26266   5879.29
 6.30478   5916.72
 6.3469   5920.18
 6.38902   5943.26
 6.43114   5988.29
 6.47326   5996.4
 6.51538   6051.81
 6.5575   6131.84
 6.59962   6150.19
 6.64174   6268.93
 6.68386   6415.85
 6.72598   6483.28
 6.7681   6601.72
 6.81022   6727.89
 6.85234   6891.67
 6.89446   7363.33
 6.93658   8123.41
 6.9787   8102.9
 7.02082   7856.54
 7.06294   7572.37
 7.10506   6960.58
 7.14718   6737.37
 7.1893   6657.24
 7.23142   6620.1
 7.27354   6665.57
 7.31566   6669.98
 7.35778   6819.71
 7.3999   6959.61
 7.44202   7144.04
 7.48414   7285.47
 7.52626   7332.08
 7.56838   7303.46
 7.6105   7013.54
 7.65262   6420.91
 7.69474   6146.45
 7.73686   6018.07
 7.77898   5893.74
 7.8211   5816.87
 7.86322   5748.68
 7.90534   5653.41
 7.94746   5622.38
 7.98958   5554.81
 8.0317   5509.65
 8.07382   5596.75
 8.11594   5818.56
 8.15806   5897.75
 8.20018   6308.19
 8.2423   7049.77
 8.28442   7244.47
 8.32654   6392.28
 8.36866   5825.54
 8.41078   7096.26
 8.4529   5900.9
 8.49502   6147.32
 8.53714   6543.33
 8.57926   6716.06
 8.62138   6267.19
 8.6635   5784.09
 8.70562   5548.4
 8.74774   5428.2
 8.78986   5326.06
 8.83198   5225.96
 8.8741   5045.77
 8.91622   4986.44
 8.95834   4949.59
 9.00046   4954.73
 9.04258   4925.69
 9.0847   4895
 9.12682   4940.43
 9.16894   5018.36
 9.21106   5160.02
 9.25318   5371.72
 9.2953   5605.28
 9.33742   5713.33
 9.37954   5547.9
 9.42166   5287.57
 9.46378   5184.54
 9.5059   5217.21
 9.54802   5226.35
 9.59014   5309.92
 9.63226   5327.76
 9.67438   5320.51
 9.7165   5219.27
 9.75862   5088.48
 9.80074   5198.54
 9.84286   7499.6
 9.88498   7121
 9.9271   5466.01
 9.96922   5394.24
 10.0113   5356.04
 10.0535   5233.36
 10.0956   5187.38
 10.1377   5208.02
 10.1798   5302.45
 10.2219   5445.01
 10.2641   5627.36
 10.3062   5970.12
 10.3483   5286.94
 10.3904   5153.09
 10.4325   5183.56
 10.4747   5280.18
 10.5168   5290.76
 10.5589   5204.07
 10.601   5092.22
 10.6431   5023.65
 10.6853   5022.07
 10.7274   5069.57
 10.7695   5115.83
 10.8116   5093.89
 10.8537   5046.8
 10.8959   4958.94
 10.938   4876.11
 10.9801   4809.73
 11.0222   4780.19
 11.0643   4812.51
 11.1065   4904.43
 11.1486   4981.29
 11.1907   4917.97
 11.2328   4832.72
 11.2749   4716.15
 11.3171   4653.86
 11.3592   4572.29
 11.4013   4531.46
 11.4434   4505.59
 11.4855   4482.65
 11.5277   4451.42
 11.5698   4409.46
 11.6119   4397.52
 11.654   4382.65
 11.6961   4355.64
 11.7383   4336.66
 11.7804   4338.69
 11.8225   4356.3
 11.8646   4441.69
 11.9067   4669.45
 11.9489   4538.64
 11.991   4555.37
 12.0331   4509.5
 12.0752   4430.58
 12.1173   4361.49
 12.1595   4250.02
 12.2016   4148.05
 12.2437   4103.34
 12.2858   4086.02
 12.3279   4082.8
 12.3701   4106.68
 12.4122   4127.69
 12.4543   4138.83
 12.4964   4144.18
 12.5385   4113.63
 12.5807   4139.17
 12.6228   4176.33
 12.6649   4213.56
 12.6977   4230.42