File: docs/GuiliangJun25_tutorial_output/integrals/MA2b-00006_spotsmasked.chi
MA2b-00006.tif Azm= 0.00
2-Theta Angle (Degrees)
Intensity
       2500
 1.03978   7735.69
 1.0819   7538.94
 1.12402   7361.41
 1.16614   7196.42
 1.20826   7143.75
 1.25038   7105.16
 1.2925   7079.11
 1.33462   7159.34
 1.37674   7210.6
 1.41886   7338.96
 1.46098   7513.12
 1.5031   7715.49
 1.54522   7732.96
 1.58734   7687.44
 1.62946   7681.9
 1.67158   7695.62
 1.7137   7733.98
 1.75582   7777.06
 1.79794   7862.85
 1.84006   8008.09
 1.88218   8201.51
 1.9243   8383.31
 1.96642   8622.16
 2.00854   8834.92
 2.05066   9136.6
 2.09278   9994.84
 2.1349   23491.9
 2.17702   21821.4
 2.21914   12480.1
 2.26126   10889.1
 2.30338   10446.3
 2.3455   10625.3
 2.38762   10930.7
 2.42974   11238.6
 2.47186   11557.9
 2.51398   11884.5
 2.5561   12214
 2.59822   12465.9
 2.64034   12668.8
 2.68246   12758.8
 2.72458   12871.5
 2.7667   12814.2
 2.80882   12722
 2.85094   12617.5
 2.89306   12473.2
 2.93518   12291.1
 2.9773   12106.1
 3.01942   11881.6
 3.06154   11621.7
 3.10366   11393
 3.14578   11239.3
 3.1879   11100.3
 3.23002   10916.5
 3.27214   10837.3
 3.31426   10805.7
 3.35638   10729.4
 3.3985   10727.1
 3.44062   10733.5
 3.48274   10768.2
 3.52486   10745.1
 3.56698   10752.7
 3.6091   10714.3
 3.65122   10649.9
 3.69334   10588
 3.73546   10220.1
 3.77758   9847.71
 3.8197   9611.71
 3.86182   9366.43
 3.90394   9062.5
 3.94606   8813.67
 3.98818   8574.68
 4.0303   8442.57
 4.07242   8246.34
 4.11454   8141.81
 4.15666   7992.89
 4.19878   7839.1
 4.2409   7994.91
 4.28302   9462.02
 4.32514   9115.29
 4.36726   8237.09
 4.40938   7750.69
 4.4515   7509.85
 4.49362   7390.65
 4.53574   7102.07
 4.57786   6931.48
 4.61998   6762.58
 4.6621   6674.72
 4.70422   6612.03
 4.74634   6800.41
 4.78846   7458.28
 4.83058   9370.11
 4.8727   7962.09
 4.91482   7419.87
 4.95694   8566.23
 4.99906   10409
 5.04118   7804.95
 5.0833   7071.25
 5.12542   21019.7
 5.16754   19269.6
 5.20966   6466.6
 5.25178   5978.52
 5.2939   5886.29
 5.33602   5829.91
 5.37814   5808.1
 5.42026   5827.5
 5.46238   5930.92
 5.5045   6374.26
 5.54662   8507.02
 5.58874   9082.67
 5.63086   7222.15
 5.67298   6362.51
 5.7151   6049
 5.75722   6097.36
 5.79934   6085.12
 5.84146   6168.6
 5.88358   6733.16
 5.9257   11140.2
 5.96782   11430.5
 6.00994   8814.95
 6.05206   6846.31
 6.09418   6123.01
 6.1363   5956.83
 6.17842   5909.9
 6.22054   5883.55
 6.26266   5894.33
 6.30478   5932.56
 6.3469   5943.66
 6.38902   5979.43
 6.43114   6048.32
 6.47326   6058.61
 6.51538   6083.62
 6.5575   6142.61
 6.59962   6158.38
 6.64174   6281.02
 6.68386   6440.77
 6.72598   6499.3
 6.7681   6643.91
 6.81022   6735.76
 6.85234   6909.48
 6.89446   7469.8
 6.93658   8351.82
 6.9787   8132.97
 7.02082   7663.16
 7.06294   7494.45
 7.10506   6953.8
 7.14718   6754.81
 7.1893   6669.62
 7.23142   6646.66
 7.27354   6688.05
 7.31566   6698.09
 7.35778   6833.21
 7.3999   6991.33
 7.44202   7315.32
 7.48414   7418.88
 7.52626   7159.7
 7.56838   6953.27
 7.6105   6720.02
 7.65262   6317.63
 7.69474   6122.97
 7.73686   5998.6
 7.77898   5877.5
 7.8211   5808.66
 7.86322   5746.18
 7.90534   5666.52
 7.94746   5627.05
 7.98958   5579.63
 8.0317   5501.19
 8.07382   5564.43
 8.11594   5677.42
 8.15806   5716.03
 8.20018   5950.42
 8.2423   6668.87
 8.28442   7565.29
 8.32654   7008.88
 8.36866   5994.81
 8.41078   8521.38
 8.4529   5778.31
 8.49502   5958.65
 8.53714   6612.6
 8.57926   7259.45
 8.62138   6753.5
 8.6635   5963.12
 8.70562   5524.76
 8.74774   5311.98
 8.78986   5214.31
 8.83198   5127.78
 8.8741   5029.31
 8.91622   4973.68
 8.95834   4956.69
 9.00046   4955.35
 9.04258   4928.38
 9.0847   4912.07
 9.12682   4949.79
 9.16894   5052.16
 9.21106   5190
 9.25318   5318.22
 9.2953   5527.4
 9.33742   5687.71
 9.37954   5556.99
 9.42166   5234.38
 9.46378   5115.27
 9.5059   5118.19
 9.54802   5153.2
 9.59014   5275.5
 9.63226   5370.73
 9.67438   5432.1
 9.7165   5383.51
 9.75862   5142.94
 9.80074   5189.34
 9.84286   8057.66
 9.88498   7870.8
 9.9271   5351.6
 9.96922   5326.53
 10.0113   5329.11
 10.0535   5230.94
 10.0956   5189.35
 10.1377   5219.87
 10.1798   5353.02
 10.2219   5608.82
 10.2641   5822.94
 10.3062   8464.74
 10.3483   5327.03
 10.3904   5204.41
 10.4325   5270.13
 10.4747   5413.22
 10.5168   5386.74
 10.5589   5244.23
 10.601   5116.48
 10.6431   5030.78
 10.6853   5020.1
 10.7274   5093.7
 10.7695   5148.76
 10.8116   5114.7
 10.8537   5062.05
 10.8959   4951.97
 10.938   4867.71
 10.9801   4796.05
 11.0222   4786.39
 11.0643   4797.76
 11.1065   4867.54
 11.1486   4945.06
 11.1907   4921.99
 11.2328   4825.33
 11.2749   4688.18
 11.3171   4602.7
 11.3592   4544.35
 11.4013   4517.98
 11.4434   4475.75
 11.4855   4460.41
 11.5277   4447.54
 11.5698   4413.79
 11.6119   4401.36
 11.654   4387.34
 11.6961   4360.83
 11.7383   4326.32
 11.7804   4341.67
 11.8225   4369.9
 11.8646   4448.41
 11.9067   5081.84
 11.9489   4613.03
 11.991   4613.45
 12.0331   4504.6
 12.0752   4390.11
 12.1173   4311.61
 12.1595   4208.1
 12.2016   4137.79
 12.2437   4101.73
 12.2858   4088.57
 12.3279   4079.37
 12.3701   4115.68
 12.4122   4133.66
 12.4543   4140.38
 12.4964   4109.39
 12.5385   4082.26
 12.5807   4060.76
 12.6228   4098.47
 12.6649   4158.27
 12.6977   4227.9