File: docs/GuiliangJun25_tutorial_output/integrals/MA2b-00006_om.chi
MA2b-00006.tif Azm= 0.00
2-Theta Angle (Degrees)
Intensity
       2500
 1.03978   7742.29
 1.0819   7538.94
 1.12402   7361.41
 1.16614   7196.42
 1.20826   7143.75
 1.25038   7105.16
 1.2925   7079.11
 1.33462   7159.34
 1.37674   7210.6
 1.41886   7338.96
 1.46098   7513.12
 1.5031   7715.49
 1.54522   7732.96
 1.58734   7684.51
 1.62946   7681.9
 1.67158   7695.62
 1.7137   7736.66
 1.75582   7776.45
 1.79794   7865.33
 1.84006   8008.09
 1.88218   8203.92
 1.9243   8381.28
 1.96642   8622.16
 2.00854   8834.92
 2.05066   9136.6
 2.09278   9994.84
 2.1349   23783.1
 2.17702   21821.4
 2.21914   12480.1
 2.26126   10887.2
 2.30338   10448.1
 2.3455   10619.2
 2.38762   10930.7
 2.42974   11236.9
 2.47186   11555.8
 2.51398   11884.5
 2.5561   12214.5
 2.59822   12465.9
 2.64034   12666.9
 2.68246   12757.1
 2.72458   12871.5
 2.7667   12816.1
 2.80882   12722
 2.85094   12615.1
 2.89306   12471.4
 2.93518   12291.1
 2.9773   12106.1
 3.01942   11881.6
 3.06154   11623.1
 3.10366   11396.3
 3.14578   11237.6
 3.1879   11098.6
 3.23002   10918.1
 3.27214   10839.3
 3.31426   10803.9
 3.35638   10729.4
 3.3985   10729.4
 3.44062   10733.5
 3.48274   10762.8
 3.52486   10745.1
 3.56698   10752.7
 3.6091   10714.3
 3.65122   10649.9
 3.69334   10588
 3.73546   10220.1
 3.77758   9847.71
 3.8197   9611.71
 3.86182   9366.43
 3.90394   9062.5
 3.94606   8813.67
 3.98818   8574.68
 4.0303   8442.57
 4.07242   8246.34
 4.11454   8141.81
 4.15666   7992.89
 4.19878   7839.1
 4.2409   7994.91
 4.28302   9440.89
 4.32514   9115.29
 4.36726   8237.09
 4.40938   7746.29
 4.4515   7509.85
 4.49362   7390.65
 4.53574   7102.07
 4.57786   6931.48
 4.61998   6762.58
 4.6621   6674.72
 4.70422   6612.03
 4.74634   6800.41
 4.78846   7458.28
 4.83058   9368.1
 4.8727   7962.09
 4.91482   7419.87
 4.95694   8566.23
 4.99906   10403.6
 5.04118   7804.95
 5.0833   7038.71
 5.12542   8721.38
 5.16754   8697.44
 5.20966   6344.58
 5.25178   5977.54
 5.2939   5886.29
 5.33602   5829.91
 5.37814   5806.07
 5.42026   5827.59
 5.46238   5930.92
 5.5045   6374.5
 5.54662   8507.02
 5.58874   9082.67
 5.63086   7222.15
 5.67298   6363.38
 5.7151   6048.02
 5.75722   6098.17
 5.79934   6084.16
 5.84146   6168.59
 5.88358   6734.15
 5.9257   8761.45
 5.96782   10428.1
 6.00994   8814.95
 6.05206   6840.19
 6.09418   6123.01
 6.1363   5955.6
 6.17842   5909.9
 6.22054   5882.01
 6.26266   5894.33
 6.30478   5930.93
 6.3469   5942.06
 6.38902   5977.58
 6.43114   6041.02
 6.47326   6058.61
 6.51538   6083.62
 6.5575   6140.18
 6.59962   6158.38
 6.64174   6281.02
 6.68386   6440.77
 6.72598   6499.3
 6.7681   6643.91
 6.81022   6735.76
 6.85234   6909.48
 6.89446   7469.8
 6.93658   8351.82
 6.9787   8132.97
 7.02082   7663.16
 7.06294   7481.38
 7.10506   6953.8
 7.14718   6754.81
 7.1893   6667.68
 7.23142   6646.66
 7.27354   6685.31
 7.31566   6694.66
 7.35778   6832.18
 7.3999   6991.33
 7.44202   7315.32
 7.48414   7418.88
 7.52626   7159.7
 7.56838   6953.27
 7.6105   6720.02
 7.65262   6316.13
 7.69474   6122.97
 7.73686   5998.6
 7.77898   5877.5
 7.8211   5808.66
 7.86322   5746.18
 7.90534   5664.95
 7.94746   5627.05
 7.98958   5579.63
 8.0317   5501.19
 8.07382   5564.43
 8.11594   5675.24
 8.15806   5714.65
 8.20018   5950.42
 8.2423   6664.93
 8.28442   7565.29
 8.32654   6999.93
 8.36866   5993.08
 8.41078   7057.87
 8.4529   5777.16
 8.49502   5957.64
 8.53714   6609.54
 8.57926   7258.51
 8.62138   6753.5
 8.6635   5963.12
 8.70562   5520.81
 8.74774   5311.98
 8.78986   5213.6
 8.83198   5127.08
 8.8741   5020.71
 8.91622   4972.35
 8.95834   4956.69
 9.00046   4954.71
 9.04258   4927.12
 9.0847   4911.45
 9.12682   4948.1
 9.16894   5052.19
 9.21106   5189.44
 9.25318   5317.27
 9.2953   5526.9
 9.33742   5687.78
 9.37954   5554.59
 9.42166   5234.24
 9.46378   5115.78
 9.5059   5118.65
 9.54802   5149.05
 9.59014   5274.99
 9.63226   5370.07
 9.67438   5432.1
 9.7165   5376.51
 9.75862   5131.39
 9.80074   5185.92
 9.84286   7449.59
 9.88498   6993.14
 9.9271   5351.6
 9.96922   5326.53
 10.0113   5327.84
 10.0535   5229.63
 10.0956   5189.35
 10.1377   5219.17
 10.1798   5349.54
 10.2219   5603.68
 10.2641   5806.61
 10.3062   6081.53
 10.3483   5327.03
 10.3904   5203.62
 10.4325   5270.13
 10.4747   5412.11
 10.5168   5385.81
 10.5589   5244.23
 10.601   5116.48
 10.6431   5029.22
 10.6853   5019.4
 10.7274   5091.35
 10.7695   5147.4
 10.8116   5113.36
 10.8537   5060.36
 10.8959   4950.9
 10.938   4866.67
 10.9801   4795.03
 11.0222   4786.34
 11.0643   4797.74
 11.1065   4867.07
 11.1486   4945.08
 11.1907   4921.16
 11.2328   4824.86
 11.2749   4687.02
 11.3171   4603.55
 11.3592   4545.51
 11.4013   4519.15
 11.4434   4476.16
 11.4855   4461.24
 11.5277   4447.55
 11.5698   4412.99
 11.6119   4401.32
 11.654   4388.19
 11.6961   4360.83
 11.7383   4326.32
 11.7804   4340.95
 11.8225   4369.19
 11.8646   4443.35
 11.9067   4710.77
 11.9489   4612.07
 11.991   4612.97
 12.0331   4504.18
 12.0752   4389.01
 12.1173   4311.67
 12.1595   4206.88
 12.2016   4137
 12.2437   4101.73
 12.2858   4085.97
 12.3279   4077.21
 12.3701   4114.91
 12.4122   4133.26
 12.4543   4139.01
 12.4964   4109.07
 12.5385   4081.64
 12.5807   4059.44
 12.6228   4098.5
 12.6649   4157.72
 12.6977   4226.65