File: docs/GuiliangJun25_tutorial_output/integrals/MA2b-00001_spotsmasked.chi
MA2b-00001.tif Azm= 0.00
2-Theta Angle (Degrees)
Intensity
       2500
 1.03978   7636.89
 1.0819   7432.07
 1.12402   7275.57
 1.16614   7156.25
 1.20826   7085.51
 1.25038   7033.53
 1.2925   7041.63
 1.33462   7073.9
 1.37674   7125.81
 1.41886   7257.91
 1.46098   7475.38
 1.5031   7666.59
 1.54522   7671.02
 1.58734   7639.99
 1.62946   7630.86
 1.67158   7654.71
 1.7137   7651.65
 1.75582   7692.17
 1.79794   7781.6
 1.84006   7919.62
 1.88218   8113.7
 1.9243   8320.08
 1.96642   8512.78
 2.00854   8744.24
 2.05066   8968.11
 2.09278   9388.58
 2.1349   12488.6
 2.17702   23916.8
 2.21914   16858.7
 2.26126   12216.1
 2.30338   10477.1
 2.3455   10571.2
 2.38762   10814
 2.42974   11147.7
 2.47186   11462
 2.51398   11786.4
 2.5561   12094.1
 2.59822   12373.9
 2.64034   12573.7
 2.68246   12684.6
 2.72458   12765.3
 2.7667   12723.8
 2.80882   12629.2
 2.85094   12516.8
 2.89306   12367.4
 2.93518   12194.2
 2.9773   12000.6
 3.01942   11781.9
 3.06154   11535.9
 3.10366   11281.4
 3.14578   11111.1
 3.1879   10987.8
 3.23002   10822.2
 3.27214   10741.9
 3.31426   10690.9
 3.35638   10609.7
 3.3985   10608.5
 3.44062   10652.1
 3.48274   10630.8
 3.52486   10621.6
 3.56698   10636.6
 3.6091   10625.3
 3.65122   10485.8
 3.69334   10462.1
 3.73546   10181.5
 3.77758   9751.91
 3.8197   9465.25
 3.86182   9256.96
 3.90394   8933.11
 3.94606   8677.7
 3.98818   8493.76
 4.0303   8333.74
 4.07242   8113.26
 4.11454   8070.9
 4.15666   7911.6
 4.19878   7725.22
 4.2409   7765.79
 4.28302   7967.01
 4.32514   8476.8
 4.36726   8891.52
 4.40938   8237.73
 4.4515   7774.88
 4.49362   7578.75
 4.53574   7059.25
 4.57786   6845.24
 4.61998   6670.29
 4.6621   6593.68
 4.70422   6607.02
 4.74634   7275.04
 4.78846   8724.93
 4.83058   8568.99
 4.8727   6913.04
 4.91482   8118.33
 4.95694   8394.8
 4.99906   7665.94
 5.04118   6504.43
 5.0833   6680.42
 5.12542   20383.8
 5.16754   18879.1
 5.20966   6331.21
 5.25178   5876.89
 5.2939   5780.58
 5.33602   5744.53
 5.37814   5762.87
 5.42026   5841.63
 5.46238   6111.22
 5.5045   7445.48
 5.54662   14091.7
 5.58874   13687.1
 5.63086   8719.17
 5.67298   6677.92
 5.7151   5970.83
 5.75722   5888.87
 5.79934   5787.81
 5.84146   5751.08
 5.88358   5975.29
 5.9257   9332.21
 5.96782   8106.06
 6.00994   6503.9
 6.05206   6028.99
 6.09418   5785.62
 6.1363   5750.74
 6.17842   5759.45
 6.22054   5755.44
 6.26266   5772.77
 6.30478   5819.06
 6.3469   5845.98
 6.38902   5877.42
 6.43114   5903.87
 6.47326   5905.73
 6.51538   5965.97
 6.5575   6068.01
 6.59962   6097.67
 6.64174   6159.74
 6.68386   6329.43
 6.72598   6390.98
 6.7681   6491.44
 6.81022   6632.09
 6.85234   6769.96
 6.89446   7139.41
 6.93658   7694.86
 6.9787   8037.4
 7.02082   8138.06
 7.06294   7635.35
 7.10506   6855.35
 7.14718   6614.42
 7.1893   6540.6
 7.23142   6508.57
 7.27354   6545.92
 7.31566   6569.96
 7.35778   6738.28
 7.3999   6801.02
 7.44202   6868.12
 7.48414   7059
 7.52626   7508.2
 7.56838   7876.15
 7.6105   7576.25
 7.65262   6491.2
 7.69474   6126.68
 7.73686   5981.34
 7.77898   5842.12
 7.8211   5774.4
 7.86322   5712.27
 7.90534   5598.08
 7.94746   5566.3
 7.98958   5538.84
 8.0317   5485.57
 8.07382   5686.77
 8.11594   6133.1
 8.15806   6259.51
 8.20018   6814.8
 8.2423   7274.47
 8.28442   6415
 8.32654   5632.18
 8.36866   5621.46
 8.41078   8549.18
 8.4529   6105.56
 8.49502   6315.59
 8.53714   6248.37
 8.57926   5949.28
 8.62138   5597.63
 8.6635   5467.24
 8.70562   5495.59
 8.74774   5500.37
 8.78986   5463.3
 8.83198   5337.52
 8.8741   5083.8
 8.91622   4949.2
 8.95834   4921.63
 9.00046   4938.58
 9.04258   4872.61
 9.0847   4836.16
 9.12682   4868.11
 9.16894   4953.62
 9.21106   5087.35
 9.25318   5416.84
 9.2953   5704.78
 9.33742   5685.33
 9.37954   5531.82
 9.42166   5341.62
 9.46378   5295.04
 9.5059   5337.24
 9.54802   5274.81
 9.59014   5280.58
 9.63226   5212.99
 9.67438   5084.12
 9.7165   4993.16
 9.75862   4985.54
 9.80074   5229.87
 9.84286   8222.36
 9.88498   8144.48
 9.9271   5569.91
 9.96922   5418.7
 10.0113   5327.64
 10.0535   5186.62
 10.0956   5130.9
 10.1377   5155.76
 10.1798   5185.93
 10.2219   5181.91
 10.2641   5367.79
 10.3062   8205.31
 10.3483   5192.09
 10.3904   5043.55
 10.4325   5043.44
 10.4747   5086.64
 10.5168   5099.68
 10.5589   5081.52
 10.601   5024.66
 10.6431   4977.92
 10.6853   4966.15
 10.7274   5035.19
 10.7695   5040.29
 10.8116   5009.81
 10.8537   4964.76
 10.8959   4906.91
 10.938   4817.33
 10.9801   4759.04
 11.0222   4759.14
 11.0643   4800.59
 11.1065   4947
 11.1486   5017.05
 11.1907   4879.93
 11.2328   4808.47
 11.2749   4724.03
 11.3171   4665.52
 11.3592   4585.89
 11.4013   4526.58
 11.4434   4493.27
 11.4855   4482.08
 11.5277   4438.42
 11.5698   4362.93
 11.6119   4359.98
 11.654   4330.45
 11.6961   4300.31
 11.7383   4287.63
 11.7804   4299.66
 11.8225   4314.33
 11.8646   4371.56
 11.9067   4921.35
 11.9489   4411.28
 11.991   4453.4
 12.0331   4467.81
 12.0752   4471.86
 12.1173   4457.6
 12.1595   4287.26
 12.2016   4143.1
 12.2437   4079.71
 12.2858   4058.07
 12.3279   4052.1
 12.3701   4086.84
 12.4122   4103
 12.4543   4157.23
 12.4964   4183.17
 12.5385   4166.63
 12.5807   4187.25
 12.6228   4230.75
 12.6649   4209.66
 12.6977   4160.1